# n + Be  9 : (n,2n)    
# jendl.ad   K.Shibata                         EVAL-Feb09
# uncertainties: n
# # energies =    94
#   E(MeV)       xs(mb) 
 1.86803E+00    0.00000E+00
 1.86825E+00    8.98058E-04
 1.86848E+00    1.85997E-03
 1.86893E+00    3.81007E-03
 1.86984E+00    8.02886E-03
 1.87075E+00    1.26158E-02
 1.87166E+00    1.75706E-02
 1.87348E+00    2.85829E-02
 1.87530E+00    4.10634E-02
 1.87712E+00    5.50102E-02
 1.87895E+00    7.05097E-02
 1.88260E+00    1.05836E-01
 1.88626E+00    1.47146E-01
 1.88993E+00    1.94471E-01
 1.89361E+00    2.47842E-01
 1.89729E+00    3.07120E-01
 1.90468E+00    4.43936E-01
 1.91209E+00    6.04837E-01
 1.91953E+00    7.90141E-01
 1.92700E+00    9.99999E-01
 1.92700E+00    9.99999E-01
 1.96350E+00    1.50000E+00
 2.00000E+00    2.00000E+00
 2.02485E+00    2.96880E+00
 2.05000E+00    4.00000E+00
 2.10000E+00    6.00000E+00
 2.14942E+00    7.90517E+00
 2.20000E+00    1.00000E+01
 2.30000E+00    1.40000E+01
 2.40000E+00    1.80000E+01
 2.50000E+00    2.20000E+01
 2.60000E+00    2.60000E+01
 2.62000E+00    2.70000E+01
 2.70000E+00    3.30000E+01
 2.80000E+00    2.00000E+02
 2.90000E+00    2.70000E+02
 3.10000E+00    3.70000E+02
 3.20000E+00    4.07999E+02
 3.40248E+00    4.41072E+02
 3.42660E+00    4.45395E+02
 3.45090E+00    4.49492E+02
 3.50000E+00    4.56999E+02
 3.54896E+00    4.63314E+02
 3.59861E+00    4.68793E+02
 3.70000E+00    4.76002E+02
 3.84708E+00    4.93650E+02
 4.00000E+00    5.05001E+02
 4.05700E+00    5.08001E+02
 4.17500E+00    5.12998E+02
 4.32900E+00    5.21000E+02
 4.47100E+00    5.27998E+02
 4.50000E+00    5.28998E+02
 5.00000E+00    5.53001E+02
 5.22604E+00    5.56615E+02
 5.36127E+00    5.58961E+02
 5.50000E+00    5.60999E+02
 5.74456E+00    5.65405E+02
 6.00000E+00    5.68998E+02
 6.50000E+00    5.70002E+02
 7.00000E+00    5.71998E+02
 7.50000E+00    5.73000E+02
 7.56107E+00    5.73121E+02
 7.66849E+00    5.73751E+02
 7.77744E+00    5.74112E+02
 8.00000E+00    5.74001E+02
 8.50000E+00    5.66165E+02
 9.00000E+00    5.58599E+02
 9.50000E+00    5.50396E+02
 1.00000E+01    5.42450E+02
 1.10000E+01    5.25859E+02
 1.16000E+01    5.15099E+02
 1.20000E+01    5.08659E+02
 1.21300E+01    5.07181E+02
 1.25425E+01    5.01124E+02
 1.30000E+01    4.95851E+02
 1.31318E+01    4.94036E+02
 1.37500E+01    4.86961E+02
 1.40000E+01    4.83803E+02
 1.41000E+01    4.82571E+02
 1.42600E+01    4.80236E+02
 1.45000E+01    4.75828E+02
 1.50000E+01    4.67894E+02
 1.55000E+01    4.61367E+02
 1.60000E+01    4.54847E+02
 1.60072E+01    4.54755E+02
 1.60117E+01    4.54700E+02
 1.62900E+01    4.51355E+02
 1.66000E+01    4.47873E+02
 1.68500E+01    4.44346E+02
 1.70000E+01    4.42595E+02
 1.73000E+01    4.38790E+02
 1.80000E+01    4.29293E+02
 1.90000E+01    4.16765E+02
 2.00000E+01    4.04176E+02
