# n + Ag  0 : (n,d)
# jendl4.0   N.Iwamoto,K.Shibata               EVAL-Dec09
# uncertainties: n
# # energies =    72
#   E(MeV)          xs(mb) 
 3.59729E+00    0.00000E+00
 4.11397E+00    3.58503E-12
 4.73595E+00    1.06429E-11
 4.74176E+00    1.07111E-11
 4.83814E+00    1.18523E-11
 5.00000E+00    1.37753E-11
 5.16964E+00    1.73842E-09
 5.17428E+00    1.78560E-09
 5.31978E+00    3.26520E-09
 5.50000E+00    5.09789E-09
 5.51957E+00    1.35123E-08
 5.52476E+00    1.57439E-08
 5.54780E+00    2.56509E-08
 5.61767E+00    5.56938E-08
 5.69317E+00    8.81604E-08
 5.69352E+00    8.83108E-08
 5.70081E+00    9.14486E-08
 5.86094E+00    1.60308E-07
 5.89690E+00    1.75774E-07
 5.90177E+00    1.77864E-07
 5.92461E+00    1.87687E-07
 5.92789E+00    1.89098E-07
 5.97028E+00    2.07328E-07
 5.98558E+00    2.13904E-07
 6.00000E+00    2.20107E-07
 6.01741E+00    3.01303E-07
 6.02135E+00    3.19682E-07
 6.05941E+00    4.97189E-07
 6.09332E+00    6.55338E-07
 6.10540E+00    7.11678E-07
 6.11583E+00    7.60323E-07
 6.12088E+00    7.83877E-07
 6.12119E+00    7.85325E-07
 6.20004E+00    1.15307E-06
 6.20164E+00    1.16054E-06
 6.21294E+00    1.21324E-06
 6.24645E+00    1.36952E-06
 6.24895E+00    1.38118E-06
 6.27119E+00    1.48491E-06
 6.32212E+00    1.72244E-06
 6.32812E+00    1.75042E-06
 6.33488E+00    1.78195E-06
 6.33650E+00    1.78951E-06
 6.34049E+00    1.80812E-06
 6.50000E+00    2.55205E-06
 7.00000E+00    1.37517E-05
 7.50000E+00    4.66431E-05
 8.00000E+00    1.31872E-04
 8.50000E+00    4.38803E-04
 9.00000E+00    1.80204E-03
 9.50000E+00    7.12367E-03
 1.00000E+01    2.37972E-02
 1.05000E+01    6.40929E-02
 1.10000E+01    1.50091E-01
 1.15000E+01    3.04424E-01
 1.20000E+01    5.46966E-01
 1.25000E+01    8.78883E-01
 1.30000E+01    1.31582E+00
 1.35000E+01    1.84527E+00
 1.40000E+01    2.45695E+00
 1.45000E+01    3.13573E+00
 1.50000E+01    3.87214E+00
 1.55000E+01    4.55797E+00
 1.60000E+01    5.43675E+00
 1.65000E+01    6.24883E+00
 1.70000E+01    7.12031E+00
 1.75000E+01    7.90030E+00
 1.80000E+01    8.71638E+00
 1.85000E+01    9.54487E+00
 1.90000E+01    1.03086E+01
 1.95000E+01    1.11339E+01
 2.00000E+01    1.17618E+01
