# n + Nb 93 : (n,t)     
# jendl.ad   A.Ichihara                        EVAL-APR16
# uncertainties: n
# # energies =    41
#   E(MeV)       xs(mb) 
 6.26258E+00    0.00000E+00
 7.48044E+00    8.02310E-13
 7.50000E+00    8.15200E-13
 7.74490E+00    1.31020E-09
 8.00000E+00    2.67450E-09
 8.16518E+00    1.03070E-07
 8.32709E+00    2.01490E-07
 8.41721E+00    2.56270E-07
 8.45630E+00    2.80030E-07
 8.47585E+00    2.91910E-07
 8.48697E+00    2.98670E-07
 8.50000E+00    3.06590E-07
 8.54704E+00    8.81960E-07
 8.57531E+00    1.22775E-06
 8.60827E+00    1.63090E-06
 8.64506E+00    2.08090E-06
 8.65483E+00    2.20040E-06
 8.68378E+00    2.55450E-06
 9.00000E+00    6.42237E-06
 9.50000E+00    5.01750E-05
 1.00000E+01    2.09187E-04
 1.05000E+01    5.68136E-04
 1.10000E+01    1.15666E-03
 1.15000E+01    2.08848E-03
 1.20000E+01    4.11896E-03
 1.25000E+01    9.28769E-03
 1.30000E+01    1.94099E-02
 1.35000E+01    4.04819E-02
 1.40000E+01    7.73855E-02
 1.45000E+01    1.24283E-01
 1.50000E+01    1.90318E-01
 1.55000E+01    2.72229E-01
 1.60000E+01    3.69003E-01
 1.65000E+01    4.79167E-01
 1.70000E+01    6.00946E-01
 1.75000E+01    7.32275E-01
 1.80000E+01    8.70451E-01
 1.85000E+01    1.01173E+00
 1.90000E+01    1.15162E+00
 1.95000E+01    1.28590E+00
 2.00000E+01    1.41107E+00
