# n + Nb 93 : (n,xd)    
# jendl.ad   A.Ichihara                        EVAL-APR16
# 
# # energies =    76
#   E(MeV)        xs(mb) 
 3.11546E-02    0.00000E+00
 3.50000E-02    0.00000E+00
 4.00000E-02    0.00000E+00
 5.00000E-02    0.00000E+00
 6.00000E-02    0.00000E+00
 7.00000E-02    0.00000E+00
 8.00000E-02    0.00000E+00
 9.00000E-02    0.00000E+00
 1.00000E-01    0.00000E+00
 1.12500E-01    0.00000E+00
 1.25000E-01    0.00000E+00
 1.50000E-01    0.00000E+00
 1.75000E-01    0.00000E+00
 2.00000E-01    0.00000E+00
 2.25000E-01    0.00000E+00
 2.50000E-01    0.00000E+00
 2.75000E-01    0.00000E+00
 3.00000E-01    0.00000E+00
 3.50000E-01    0.00000E+00
 4.00000E-01    0.00000E+00
 5.00000E-01    0.00000E+00
 6.00000E-01    0.00000E+00
 6.94459E-01    0.00000E+00
 7.00000E-01    0.00000E+00
 7.51986E-01    0.00000E+00
 8.00000E-01    0.00000E+00
 8.17359E-01    0.00000E+00
 8.19208E-01    0.00000E+00
 9.00000E-01    0.00000E+00
 9.60142E-01    0.00000E+00
 9.80531E-01    0.00000E+00
 9.89568E-01    0.00000E+00
 1.00000E+00    0.00000E+00
 1.09442E+00    0.00000E+00
 1.25000E+00    0.00000E+00
 1.50000E+00    0.00000E+00
 1.75000E+00    0.00000E+00
 2.00000E+00    0.00000E+00
 2.25000E+00    0.00000E+00
 2.50000E+00    0.00000E+00
 2.75000E+00    0.00000E+00
 3.00000E+00    0.00000E+00
 3.50000E+00    0.00000E+00
 4.00000E+00    6.43983E-13
 4.50000E+00    2.93102E-12
 5.00000E+00    1.13900E-11
 5.50000E+00    1.15650E-08
 6.00000E+00    1.01470E-06
 6.50000E+00    1.79999E-05
 7.00000E+00    1.27999E-04
 7.50000E+00    5.27312E-04
 8.00000E+00    1.58887E-03
 8.50000E+00    4.27051E-03
 9.00000E+00    1.18928E-02
 9.50000E+00    3.41837E-02
 1.00000E+01    9.22574E-02
 1.05000E+01    2.18903E-01
 1.10000E+01    4.58698E-01
 1.15000E+01    8.50521E-01
 1.20000E+01    1.41968E+00
 1.25000E+01    2.17125E+00
 1.30000E+01    3.09296E+00
 1.35000E+01    4.16276E+00
 1.40000E+01    5.35553E+00
 1.45000E+01    6.64706E+00
 1.50000E+01    8.01571E+00
 1.55000E+01    9.44357E+00
 1.60000E+01    1.09162E+01
 1.65000E+01    1.22480E+01
 1.70000E+01    1.35240E+01
 1.75000E+01    1.50594E+01
 1.80000E+01    1.66044E+01
 1.85000E+01    1.81522E+01
 1.90000E+01    1.96957E+01
 1.95000E+01    2.12295E+01
 2.00000E+01    2.27492E+01
