# n + Br 81 : (n,non)   
# jendl4.0   K.Shibata, A.Ichihara, S.Kunieda  EVAL-AUG09
# uncertainties: n
# # energies =    95
#   E(MeV)       xs(mb) 
 1.30000E-02    0.00000E+00
 1.30000E-02    5.11360E+02
 2.00000E-02    3.78500E+02
 3.00000E-02    2.93900E+02
 4.00000E-02    2.44300E+02
 5.00000E-02    2.11400E+02
 6.00000E-02    1.88100E+02
 7.00000E-02    1.70800E+02
 8.00000E-02    1.57500E+02
 9.00000E-02    1.46900E+02
 1.00000E-01    1.38400E+02
 2.00000E-01    9.92500E+01
 2.79426E-01    7.78764E+01
 3.00000E-01    2.40940E+02
 4.00000E-01    5.25390E+02
 5.00000E-01    6.98220E+02
 5.42884E-01    7.14366E+02
 5.44909E-01    7.16233E+02
 5.73086E-01    8.17547E+02
 6.00000E-01    1.00542E+03
 6.58001E-01    1.12812E+03
 7.00000E-01    1.30152E+03
 7.76713E-01    1.40583E+03
 7.99240E-01    1.48064E+03
 8.00000E-01    1.51018E+03
 8.12983E-01    1.52056E+03
 8.38615E-01    1.54105E+03
 8.47201E-01    1.55654E+03
 9.00000E-01    1.69657E+03
 9.17294E-01    1.70354E+03
 9.87154E-01    1.78088E+03
 1.00000E+00    1.81271E+03
 1.03646E+00    1.78648E+03
 1.08941E+00    1.75901E+03
 1.11908E+00    1.74676E+03
 1.18458E+00    1.72675E+03
 1.19147E+00    1.72540E+03
 1.20473E+00    1.72289E+03
 1.25331E+00    1.72324E+03
 1.28178E+00    1.72887E+03
 1.28219E+00    1.72904E+03
 1.31621E+00    1.74721E+03
 1.33949E+00    1.76480E+03
 1.34395E+00    1.76916E+03
 1.36663E+00    1.79593E+03
 1.38860E+00    1.82715E+03
 1.41846E+00    1.87532E+03
 1.50000E+00    2.02599E+03
 1.50027E+00    2.02584E+03
 1.53176E+00    2.01159E+03
 1.54128E+00    2.00809E+03
 1.55505E+00    2.00347E+03
 1.55515E+00    2.00345E+03
 1.56082E+00    2.00247E+03
 1.56223E+00    2.00232E+03
 1.56244E+00    2.00231E+03
 1.60678E+00    2.00529E+03
 1.60719E+00    2.00535E+03
 1.61731E+00    2.00737E+03
 2.00000E+00    2.15033E+03
 2.50000E+00    2.16972E+03
 3.00000E+00    2.16538E+03
 3.50000E+00    2.13282E+03
 4.00000E+00    2.07605E+03
 4.50000E+00    2.01207E+03
 5.00000E+00    1.95154E+03
 5.34512E+00    1.91698E+03
 5.50000E+00    1.90147E+03
 6.00000E+00    1.86302E+03
 6.50000E+00    1.83516E+03
 6.56399E+00    1.83266E+03
 7.00000E+00    1.81560E+03
 7.50000E+00    1.80156E+03
 7.59741E+00    1.79953E+03
 8.00000E+00    1.79116E+03
 8.50000E+00    1.78306E+03
 9.00000E+00    1.77617E+03
 9.04712E+00    1.77557E+03
 9.50000E+00    1.76979E+03
 1.00000E+01    1.76358E+03
 1.02833E+01    1.71071E+03
 1.10000E+01    1.75136E+03
 1.13378E+01    1.74748E+03
 1.20000E+01    1.73986E+03
 1.30000E+01    1.72899E+03
 1.40000E+01    1.71660E+03
 1.45000E+01    1.70921E+03
 1.50000E+01    1.70120E+03
 1.53823E+01    1.69410E+03
 1.60000E+01    1.68264E+03
 1.70000E+01    1.66418E+03
 1.80000E+01    1.64769E+03
 1.82740E+01    1.64341E+03
 1.90000E+01    1.63344E+03
 2.00000E+01    1.62012E+03
