# n + Xe132 : (n,xa)    
# jendl4.0   S.Kunieda, A.Ichihara, K.Shibata+ EVAL-FEB22
# 
# # energies =    65
#   E(MeV)        xs(mb) 
 6.72826E-01    5.06268E-10
 7.00000E-01    4.42300E-10
 7.50000E-01    4.66600E-10
 8.00000E-01    5.70900E-10
 8.50000E-01    7.27200E-10
 9.00000E-01    9.50100E-10
 9.50000E-01    1.26200E-09
 1.00000E+00    1.69100E-09
 1.20000E+00    5.67900E-09
 1.30784E+00    1.18051E-08
 1.40000E+00    1.70400E-08
 1.45134E+00    2.44002E-08
 1.60000E+00    4.57100E-08
 1.80000E+00    1.32100E-07
 1.81751E+00    1.50813E-07
 1.86415E+00    2.00641E-07
 1.97801E+00    3.22305E-07
 2.00000E+00    3.45800E-07
 2.00083E+00    3.47759E-07
 2.05596E+00    4.77285E-07
 2.12642E+00    6.42816E-07
 2.12800E+00    6.46534E-07
 2.18366E+00    7.77314E-07
 2.18538E+00    7.81362E-07
 2.20000E+00    8.15700E-07
 2.20395E+00    8.35219E-07
 2.23099E+00    9.68996E-07
 2.32104E+00    1.41444E-06
 2.36862E+00    1.64980E-06
 2.37120E+00    1.66252E-06
 2.40000E+00    1.80500E-06
 2.41322E+00    1.94378E-06
 2.44332E+00    2.25966E-06
 2.45340E+00    2.36542E-06
 2.60000E+00    3.90400E-06
 2.80000E+00    7.74500E-06
 3.00000E+00    1.45600E-05
 3.25000E+00    2.94300E-05
 3.50000E+00    5.93500E-05
 3.75000E+00    1.14500E-04
 4.00000E+00    1.98100E-04
 4.25000E+00    3.47000E-04
 4.50000E+00    5.53100E-04
 4.75000E+00    8.89100E-04
 5.00000E+00    1.31600E-03
 5.50000E+00    2.73700E-03
 6.00000E+00    5.10300E-03
 6.50000E+00    8.71600E-03
 7.00000E+00    1.38600E-02
 7.50000E+00    2.08101E-02
 8.00000E+00    2.97307E-02
 8.50000E+00    4.09175E-02
 9.00000E+00    5.47268E-02
 9.50000E+00    7.18584E-02
 1.00000E+01    9.33134E-02
 1.10000E+01    1.57526E-01
 1.20000E+01    2.73355E-01
 1.30000E+01    4.87350E-01
 1.40000E+01    8.62500E-01
 1.50000E+01    1.46920E+00
 1.60000E+01    2.37740E+00
 1.70000E+01    3.66100E+00
 1.80000E+01    5.40100E+00
 1.90000E+01    7.69800E+00
 2.00000E+01    1.06650E+01
