# n + Os188 : (n,n'12)  
# jendl4.0   N.Iwamoto                         EVAL-Jan10
# uncertainties: n
# # energies =    73
#   E(MeV)       xs(mb) 
 1.43249E+00    0.00000E+00
 1.45125E+00    3.68523E-02
 1.46535E+00    7.03189E-02
 1.47036E+00    8.42997E-02
 1.48597E+00    1.34382E-01
 1.50000E+00    1.88237E-01
 1.52283E+00    2.93541E-01
 1.52424E+00    3.00790E-01
 1.57511E+00    6.06047E-01
 1.58546E+00    6.74280E-01
 1.60000E+00    7.81355E-01
 1.62918E+00    1.02099E+00
 1.67762E+00    1.50399E+00
 1.69433E+00    1.63137E+00
 1.69454E+00    1.63232E+00
 1.70000E+00    1.68047E+00
 1.71342E+00    1.81604E+00
 1.73870E+00    2.09945E+00
 1.75587E+00    2.30919E+00
 1.77487E+00    2.55358E+00
 1.78050E+00    2.62944E+00
 1.80000E+00    2.90264E+00
 1.81731E+00    3.15888E+00
 1.83473E+00    3.42068E+00
 1.85281E+00    3.66615E+00
 1.86496E+00    3.83576E+00
 1.88798E+00    4.16767E+00
 1.90000E+00    4.34596E+00
 1.90316E+00    4.39341E+00
 1.94729E+00    5.09051E+00
 1.95144E+00    5.15980E+00
 1.95906E+00    5.28835E+00
 1.96759E+00    5.43398E+00
 1.97552E+00    5.57163E+00
 2.00000E+00    6.01027E+00
 2.25000E+00    9.25599E+00
 2.50000E+00    9.89366E+00
 2.75000E+00    9.60772E+00
 3.00000E+00    8.09825E+00
 3.50000E+00    5.14595E+00
 4.00000E+00    2.91373E+00
 4.50000E+00    1.57113E+00
 5.00000E+00    8.57753E-01
 5.50000E+00    5.02102E-01
 6.00000E+00    3.30910E-01
 6.50000E+00    2.47774E-01
 7.00000E+00    2.05467E-01
 7.50000E+00    1.81246E-01
 8.00000E+00    1.65407E-01
 8.50000E+00    1.53813E-01
 9.00000E+00    1.44629E-01
 9.50000E+00    1.36876E-01
 1.00000E+01    1.29985E-01
 1.05000E+01    1.23579E-01
 1.10000E+01    1.17471E-01
 1.15000E+01    1.11585E-01
 1.20000E+01    1.05940E-01
 1.25000E+01    1.00567E-01
 1.30000E+01    9.54879E-02
 1.35000E+01    9.07451E-02
 1.40000E+01    8.63439E-02
 1.45000E+01    8.22726E-02
 1.50000E+01    7.85110E-02
 1.55000E+01    7.50290E-02
 1.60000E+01    7.17938E-02
 1.65000E+01    6.87707E-02
 1.70000E+01    6.59300E-02
 1.75000E+01    6.32461E-02
 1.80000E+01    6.07012E-02
 1.85000E+01    5.82835E-02
 1.90000E+01    5.59877E-02
 1.95000E+01    5.38101E-02
 2.00000E+01    5.17509E-02
