# n + Yb172 : (n,xn)    
# endfb8.0   S.Kunieda, A.Ichihara, K.Shibata+ EVAL-FEB10
# 
# # energies =   102
#   E(MeV)        xs(mb) 
 7.92050E-02    0.00000E+00
 8.00000E-02    5.07100E+01
 9.00000E-02    1.40800E+02
 1.00000E-01    2.23400E+02
 1.20000E-01    3.69100E+02
 1.40000E-01    4.95600E+02
 1.60000E-01    6.09100E+02
 1.80000E-01    7.13100E+02
 2.00000E-01    8.09100E+02
 2.50000E-01    1.02000E+03
 2.61795E-01    1.06128E+03
 3.00000E-01    1.19942E+03
 3.50000E-01    1.35342E+03
 4.00000E-01    1.48449E+03
 4.50000E-01    1.59900E+03
 5.00000E-01    1.69814E+03
 5.43145E-01    1.77180E+03
 5.50000E-01    1.78350E+03
 6.00000E-01    1.85752E+03
 6.50000E-01    1.92202E+03
 7.00000E-01    1.97932E+03
 7.50000E-01    2.02974E+03
 8.00000E-01    2.07572E+03
 8.50000E-01    2.11740E+03
 9.00000E-01    2.15501E+03
 9.17471E-01    2.16740E+03
 9.50000E-01    2.19047E+03
 1.00000E+00    2.22282E+03
 1.04903E+00    2.19776E+03
 1.12443E+00    2.21051E+03
 1.16172E+00    2.29250E+03
 1.17927E+00    2.37588E+03
 1.20000E+00    2.51999E+03
 1.20550E+00    2.51928E+03
 1.22889E+00    2.53700E+03
 1.27044E+00    2.59497E+03
 1.29409E+00    2.63295E+03
 1.33850E+00    2.71330E+03
 1.36089E+00    2.76335E+03
 1.37811E+00    2.80226E+03
 1.38388E+00    2.81530E+03
 1.40000E+00    2.85375E+03
 1.41325E+00    2.84840E+03
 1.47448E+00    2.83864E+03
 1.48544E+00    2.84436E+03
 1.50488E+00    2.86801E+03
 1.51904E+00    2.89465E+03
 1.54652E+00    2.94642E+03
 1.54965E+00    2.95231E+03
 1.55824E+00    2.96860E+03
 1.55953E+00    2.97187E+03
 1.55990E+00    2.97282E+03
 1.56672E+00    2.99255E+03
 1.60000E+00    3.08885E+03
 1.60926E+00    3.08742E+03
 1.61793E+00    3.08931E+03
 1.64272E+00    3.10485E+03
 1.65018E+00    3.11037E+03
 1.66752E+00    3.12591E+03
 1.67256E+00    3.13099E+03
 1.67589E+00    3.13534E+03
 1.68035E+00    3.14116E+03
 1.71062E+00    3.18072E+03
 1.71646E+00    3.19024E+03
 1.71782E+00    3.19248E+03
 1.72052E+00    3.19780E+03
 1.73057E+00    3.22091E+03
 1.80000E+00    3.39044E+03
 2.00000E+00    3.42299E+03
 2.20000E+00    3.42676E+03
 2.40000E+00    3.41604E+03
 2.60000E+00    3.39866E+03
 2.80000E+00    3.37867E+03
 3.00000E+00    3.35808E+03
 3.25000E+00    3.33026E+03
 3.50000E+00    3.30329E+03
 3.75000E+00    3.27764E+03
 4.00000E+00    3.25193E+03
 4.25000E+00    3.22878E+03
 4.50000E+00    3.20784E+03
 4.75000E+00    3.18865E+03
 5.00000E+00    3.17004E+03
 5.50000E+00    3.13178E+03
 6.00000E+00    3.09106E+03
 6.50000E+00    3.04939E+03
 7.00000E+00    3.01000E+03
 7.50000E+00    2.97554E+03
 8.00000E+00    2.94544E+03
 8.50000E+00    3.04911E+03
 9.00000E+00    3.59310E+03
 9.50000E+00    4.04701E+03
 1.00000E+01    4.37131E+03
 1.10000E+01    4.68080E+03
 1.20000E+01    4.79461E+03
 1.30000E+01    4.83041E+03
 1.40000E+01    4.83756E+03
 1.50000E+01    4.83034E+03
 1.60000E+01    4.86839E+03
 1.70000E+01    5.13399E+03
 1.80000E+01    5.47951E+03
 1.90000E+01    5.73788E+03
 2.00000E+01    5.92779E+03
