# n + Eu152 : (n,n'30)  
# jeff3.3    N.Iwamoto                         EVAL-Nov09
# uncertainties: n
# # energies =    70
#   E(MeV)       xs(mb) 
 2.02467E-01    0.00000E+00
 2.04460E-01    1.78725E+01
 2.04532E-01    1.81569E+01
 2.13020E-01    3.63517E+01
 2.15784E-01    3.98705E+01
 2.15852E-01    3.99447E+01
 2.20917E-01    4.47110E+01
 2.22262E-01    4.58792E+01
 2.22678E-01    4.61883E+01
 2.22924E-01    4.61387E+01
 2.25000E-01    4.72442E+01
 2.25992E-01    4.78557E+01
 2.50000E-01    5.89795E+01
 2.75000E-01    6.65840E+01
 3.00000E-01    7.18644E+01
 4.00000E-01    6.95519E+01
 5.00000E-01    5.60202E+01
 6.00000E-01    4.42904E+01
 7.00000E-01    3.46945E+01
 8.00000E-01    2.78905E+01
 9.00000E-01    2.22882E+01
 1.00000E+00    1.78471E+01
 1.10000E+00    1.45467E+01
 1.20000E+00    1.20217E+01
 1.30000E+00    9.85067E+00
 1.40000E+00    8.09882E+00
 1.50000E+00    6.68538E+00
 1.60000E+00    5.53955E+00
 1.70000E+00    4.60646E+00
 1.80000E+00    3.84334E+00
 1.90000E+00    3.21666E+00
 2.00000E+00    2.70003E+00
 2.25000E+00    1.74729E+00
 2.50000E+00    1.16595E+00
 2.75000E+00    7.74684E-01
 3.00000E+00    5.18169E-01
 3.50000E+00    2.34304E-01
 4.00000E+00    1.06108E-01
 4.50000E+00    4.87785E-02
 5.00000E+00    2.34664E-02
 5.50000E+00    1.22456E-02
 6.00000E+00    7.30290E-03
 6.50000E+00    5.08626E-03
 7.00000E+00    4.02700E-03
 7.50000E+00    3.45753E-03
 8.00000E+00    3.10379E-03
 8.50000E+00    2.85012E-03
 9.00000E+00    2.64904E-03
 9.50000E+00    2.48299E-03
 1.00000E+01    2.34067E-03
 1.05000E+01    2.21629E-03
 1.10000E+01    2.10470E-03
 1.15000E+01    2.00287E-03
 1.20000E+01    1.90841E-03
 1.25000E+01    1.81958E-03
 1.30000E+01    1.73520E-03
 1.35000E+01    1.65471E-03
 1.40000E+01    1.57800E-03
 1.45000E+01    1.50516E-03
 1.50000E+01    1.43628E-03
 1.55000E+01    1.37615E-03
 1.60000E+01    1.31960E-03
 1.65000E+01    1.26646E-03
 1.70000E+01    1.21636E-03
 1.75000E+01    1.16908E-03
 1.80000E+01    1.12447E-03
 1.85000E+01    1.08240E-03
 1.90000E+01    1.04256E-03
 1.95000E+01    1.00471E-03
 2.00000E+01    9.68602E-04
