# n + Dy163 : (n,n'06)  
# jendl4.0   N.Iwamoto,S.Chiba                 EVAL-Nov09
# uncertainties: n
# # energies =    90
#   E(MeV)       xs(mb) 
 3.38627E-01    0.00000E+00
 3.53324E-01    3.56041E+01
 3.92166E-01    6.73636E+01
 4.00000E-01    7.24243E+01
 4.14935E-01    8.16030E+01
 4.17811E-01    8.31131E+01
 4.24456E-01    8.67032E+01
 4.30328E-01    8.98036E+01
 4.52786E-01    9.89652E+01
 4.78331E-01    1.05541E+02
 5.00000E-01    1.10329E+02
 5.00278E-01    1.10399E+02
 5.17738E-01    1.14710E+02
 5.56444E-01    1.19687E+02
 5.69504E-01    1.19865E+02
 5.72231E-01    1.19389E+02
 5.91569E-01    1.20126E+02
 6.00000E-01    1.19326E+02
 6.15789E-01    1.19765E+02
 6.50250E-01    1.21373E+02
 6.64086E-01    1.20474E+02
 7.00000E-01    1.20876E+02
 7.09364E-01    1.21167E+02
 7.15877E-01    1.21374E+02
 7.16408E-01    1.21300E+02
 7.22717E-01    1.21094E+02
 7.32104E-01    1.20632E+02
 7.42226E-01    1.19562E+02
 7.44581E-01    1.19413E+02
 7.70952E-01    1.18365E+02
 7.85935E-01    1.17979E+02
 7.98306E-01    1.17556E+02
 8.00000E-01    1.17518E+02
 8.06273E-01    1.17377E+02
 8.25877E-01    1.16195E+02
 8.31919E-01    1.15987E+02
 8.56393E-01    1.14278E+02
 8.64607E-01    1.13451E+02
 8.88481E-01    1.11961E+02
 8.89768E-01    1.11820E+02
 9.00000E-01    1.11183E+02
 1.00000E+00    1.03675E+02
 1.10000E+00    9.38294E+01
 1.20000E+00    8.39434E+01
 1.30000E+00    7.41790E+01
 1.40000E+00    6.50591E+01
 1.50000E+00    5.69957E+01
 1.60000E+00    4.94986E+01
 1.70000E+00    4.29196E+01
 1.80000E+00    3.73687E+01
 1.90000E+00    3.23658E+01
 2.00000E+00    2.79735E+01
 2.25000E+00    1.99756E+01
 2.50000E+00    1.36873E+01
 2.75000E+00    9.65365E+00
 3.00000E+00    6.85170E+00
 3.50000E+00    3.34872E+00
 4.00000E+00    1.65606E+00
 4.50000E+00    8.41679E-01
 5.00000E+00    4.53400E-01
 5.50000E+00    2.68442E-01
 6.00000E+00    1.79051E-01
 6.50000E+00    1.34181E-01
 7.00000E+00    1.10232E-01
 7.50000E+00    9.60969E-02
 8.00000E+00    8.66340E-02
 8.50000E+00    7.95294E-02
 9.00000E+00    7.37424E-02
 9.50000E+00    6.87845E-02
 1.00000E+01    6.44140E-02
 1.05000E+01    6.05201E-02
 1.10000E+01    5.69361E-02
 1.15000E+01    5.37163E-02
 1.20000E+01    5.07311E-02
 1.25000E+01    4.80278E-02
 1.30000E+01    4.55124E-02
 1.35000E+01    4.32214E-02
 1.40000E+01    4.10865E-02
 1.45000E+01    3.91308E-02
 1.50000E+01    3.73069E-02
 1.55000E+01    3.56279E-02
 1.60000E+01    3.40633E-02
 1.65000E+01    3.26036E-02
 1.70000E+01    3.12295E-02
 1.75000E+01    2.99359E-02
 1.80000E+01    2.87257E-02
 1.85000E+01    2.75748E-02
 1.90000E+01    2.65043E-02
 1.95000E+01    2.54739E-02
 2.00000E+01    2.45076E-02
