# n + Dy163 : (n,n'04)  
# jendl4.0   N.Iwamoto,S.Chiba                 EVAL-Nov09
# uncertainties: n
# # energies =    93
#   E(MeV)       xs(mb) 
 2.83315E-01    0.00000E+00
 2.87363E-01    9.40503E+00
 3.00000E-01    1.67094E+01
 3.38628E-01    3.12459E+01
 3.53324E-01    3.46171E+01
 3.92166E-01    4.36497E+01
 4.00000E-01    4.53434E+01
 4.14935E-01    4.85827E+01
 4.17811E-01    4.88154E+01
 4.24456E-01    4.98550E+01
 4.30328E-01    5.08144E+01
 4.52786E-01    5.42035E+01
 4.78331E-01    5.75352E+01
 5.00000E-01    5.99663E+01
 5.00278E-01    5.99994E+01
 5.17738E-01    6.17130E+01
 5.56444E-01    6.52069E+01
 5.69504E-01    6.61672E+01
 5.72231E-01    6.62646E+01
 5.91569E-01    6.75535E+01
 6.00000E-01    6.69328E+01
 6.15789E-01    6.74275E+01
 6.50250E-01    6.93991E+01
 6.64086E-01    6.92316E+01
 7.00000E-01    7.09823E+01
 7.09364E-01    7.15698E+01
 7.15877E-01    7.19920E+01
 7.16408E-01    7.20003E+01
 7.22717E-01    7.23477E+01
 7.32104E-01    7.23057E+01
 7.42226E-01    7.20073E+01
 7.44581E-01    7.20540E+01
 7.70952E-01    7.30700E+01
 7.85935E-01    7.38422E+01
 7.98306E-01    7.44214E+01
 8.00000E-01    7.45053E+01
 8.06273E-01    7.48381E+01
 8.25877E-01    7.55975E+01
 8.31919E-01    7.58998E+01
 8.56393E-01    7.67722E+01
 8.64607E-01    7.70147E+01
 8.88481E-01    7.80292E+01
 8.89768E-01    7.80453E+01
 9.00000E-01    7.83835E+01
 1.00000E+00    8.08279E+01
 1.10000E+00    8.04981E+01
 1.20000E+00    7.91537E+01
 1.30000E+00    7.63552E+01
 1.40000E+00    7.35052E+01
 1.50000E+00    7.11914E+01
 1.60000E+00    6.72959E+01
 1.70000E+00    6.41941E+01
 1.80000E+00    6.16597E+01
 1.90000E+00    5.93394E+01
 2.00000E+00    5.75811E+01
 2.25000E+00    5.22163E+01
 2.50000E+00    4.79116E+01
 2.75000E+00    4.43990E+01
 3.00000E+00    4.17098E+01
 3.50000E+00    3.79411E+01
 4.00000E+00    3.56357E+01
 4.50000E+00    3.41035E+01
 5.00000E+00    3.30242E+01
 5.50000E+00    3.21563E+01
 6.00000E+00    3.13086E+01
 6.50000E+00    3.03631E+01
 7.00000E+00    2.92808E+01
 7.50000E+00    2.80841E+01
 8.00000E+00    2.68268E+01
 8.50000E+00    2.55657E+01
 9.00000E+00    2.43462E+01
 9.50000E+00    2.31957E+01
 1.00000E+01    2.21272E+01
 1.05000E+01    2.11831E+01
 1.10000E+01    2.02391E+01
 1.15000E+01    1.94365E+01
 1.20000E+01    1.86339E+01
 1.25000E+01    1.79347E+01
 1.30000E+01    1.72355E+01
 1.35000E+01    1.66135E+01
 1.40000E+01    1.59915E+01
 1.45000E+01    1.54359E+01
 1.50000E+01    1.48804E+01
 1.55000E+01    1.43852E+01
 1.60000E+01    1.38900E+01
 1.65000E+01    1.34452E+01
 1.70000E+01    1.30005E+01
 1.75000E+01    1.25922E+01
 1.80000E+01    1.21841E+01
 1.85000E+01    1.18014E+01
 1.90000E+01    1.14188E+01
 1.95000E+01    1.10572E+01
 2.00000E+01    1.06956E+01
