# n + Dy163 : (n,n'07)  
# jendl4.0   N.Iwamoto,S.Chiba                 EVAL-Nov09
# uncertainties: n
# # energies =    89
#   E(MeV)       xs(mb) 
 3.53324E-01    0.00000E+00
 3.92166E-01    3.46725E+01
 4.00000E-01    3.70538E+01
 4.14935E-01    4.35084E+01
 4.17811E-01    4.47005E+01
 4.24456E-01    4.74048E+01
 4.30328E-01    4.83415E+01
 4.52786E-01    5.39604E+01
 4.78331E-01    5.89698E+01
 5.00000E-01    6.17878E+01
 5.00278E-01    6.18215E+01
 5.17738E-01    6.38181E+01
 5.56444E-01    6.74374E+01
 5.69504E-01    6.81854E+01
 5.72231E-01    6.83094E+01
 5.91569E-01    6.92972E+01
 6.00000E-01    6.97401E+01
 6.15789E-01    7.06034E+01
 6.50250E-01    6.99800E+01
 6.64086E-01    7.01491E+01
 7.00000E-01    6.86494E+01
 7.09364E-01    6.86602E+01
 7.15877E-01    6.79122E+01
 7.16408E-01    6.78196E+01
 7.22717E-01    6.71555E+01
 7.32104E-01    6.66906E+01
 7.42226E-01    6.63584E+01
 7.44581E-01    6.60320E+01
 7.70952E-01    6.47958E+01
 7.85935E-01    6.35733E+01
 7.98306E-01    6.27731E+01
 8.00000E-01    6.24433E+01
 8.06273E-01    6.19144E+01
 8.25877E-01    6.07622E+01
 8.31919E-01    6.01297E+01
 8.56393E-01    5.88463E+01
 8.64607E-01    5.84457E+01
 8.88481E-01    5.69286E+01
 8.89768E-01    5.67869E+01
 9.00000E-01    5.59847E+01
 1.00000E+00    5.07723E+01
 1.10000E+00    4.56644E+01
 1.20000E+00    4.08704E+01
 1.30000E+00    3.62119E+01
 1.40000E+00    3.18210E+01
 1.50000E+00    2.78532E+01
 1.60000E+00    2.42226E+01
 1.70000E+00    2.09469E+01
 1.80000E+00    1.81727E+01
 1.90000E+00    1.56851E+01
 2.00000E+00    1.34598E+01
 2.25000E+00    9.48294E+00
 2.50000E+00    6.38332E+00
 2.75000E+00    4.43277E+00
 3.00000E+00    3.16078E+00
 3.50000E+00    1.53137E+00
 4.00000E+00    7.67306E-01
 4.50000E+00    4.08005E-01
 5.00000E+00    2.39664E-01
 5.50000E+00    1.59923E-01
 6.00000E+00    1.20542E-01
 6.50000E+00    9.94622E-02
 7.00000E+00    8.68943E-02
 7.50000E+00    7.83941E-02
 8.00000E+00    7.19450E-02
 8.50000E+00    6.66343E-02
 9.00000E+00    6.20609E-02
 9.50000E+00    5.80175E-02
 1.00000E+01    5.43918E-02
 1.05000E+01    5.11354E-02
 1.10000E+01    4.81276E-02
 1.15000E+01    4.54177E-02
 1.20000E+01    4.29014E-02
 1.25000E+01    4.06203E-02
 1.30000E+01    3.84967E-02
 1.35000E+01    3.65616E-02
 1.40000E+01    3.47580E-02
 1.45000E+01    3.31053E-02
 1.50000E+01    3.15640E-02
 1.55000E+01    3.01426E-02
 1.60000E+01    2.88180E-02
 1.65000E+01    2.75841E-02
 1.70000E+01    2.64309E-02
 1.75000E+01    2.53378E-02
 1.80000E+01    2.43132E-02
 1.85000E+01    2.33388E-02
 1.90000E+01    2.24324E-02
 1.95000E+01    2.15601E-02
 2.00000E+01    2.07420E-02
