# n + Dy163 : (n,n'32)  
# jendl4.0   N.Iwamoto,S.Chiba                 EVAL-Nov09
# uncertainties: n
# # energies =    60
#   E(MeV)       xs(mb) 
 7.85935E-01    0.00000E+00
 7.98306E-01    1.38377E+01
 8.00000E-01    1.47401E+01
 8.06273E-01    1.77569E+01
 8.25877E-01    2.51762E+01
 8.31919E-01    2.71178E+01
 8.56393E-01    3.39947E+01
 8.64607E-01    3.59071E+01
 8.88481E-01    4.08914E+01
 8.89768E-01    4.10763E+01
 9.00000E-01    4.28418E+01
 1.00000E+00    5.38940E+01
 1.10000E+00    5.65662E+01
 1.20000E+00    5.52526E+01
 1.30000E+00    5.20259E+01
 1.40000E+00    4.80545E+01
 1.50000E+00    4.37962E+01
 1.60000E+00    3.95301E+01
 1.70000E+00    3.53775E+01
 1.80000E+00    3.14303E+01
 1.90000E+00    2.76792E+01
 2.00000E+00    2.43882E+01
 2.25000E+00    1.77437E+01
 2.50000E+00    1.21826E+01
 2.75000E+00    8.67801E+00
 3.00000E+00    6.13077E+00
 3.50000E+00    2.98389E+00
 4.00000E+00    1.46676E+00
 4.50000E+00    7.42164E-01
 5.00000E+00    3.98789E-01
 5.50000E+00    2.36384E-01
 6.00000E+00    1.58594E-01
 6.50000E+00    1.19863E-01
 7.00000E+00    9.92955E-02
 7.50000E+00    8.71562E-02
 8.00000E+00    7.89876E-02
 8.50000E+00    7.28038E-02
 9.00000E+00    6.77238E-02
 9.50000E+00    6.33389E-02
 1.00000E+01    5.94490E-02
 1.05000E+01    5.59685E-02
 1.10000E+01    5.27558E-02
 1.15000E+01    4.98600E-02
 1.20000E+01    4.71623E-02
 1.25000E+01    4.47137E-02
 1.30000E+01    4.24262E-02
 1.35000E+01    4.03393E-02
 1.40000E+01    3.83877E-02
 1.45000E+01    3.65981E-02
 1.50000E+01    3.49239E-02
 1.55000E+01    3.33769E-02
 1.60000E+01    3.19339E-02
 1.65000E+01    3.05910E-02
 1.70000E+01    2.93255E-02
 1.75000E+01    2.81334E-02
 1.80000E+01    2.70185E-02
 1.85000E+01    2.59573E-02
 1.90000E+01    2.49713E-02
 1.95000E+01    2.40177E-02
 2.00000E+01    2.31211E-02
