# n + Dy163 : (n,n'29)  
# jendl4.0   N.Iwamoto,S.Chiba                 EVAL-Nov09
# uncertainties: n
# # energies =    63
#   E(MeV)       xs(mb) 
 7.42226E-01    0.00000E+00
 7.44581E-01    1.85075E+00
 7.70952E-01    6.58621E+00
 7.85935E-01    8.28721E+00
 7.98306E-01    9.64545E+00
 8.00000E-01    9.79388E+00
 8.06273E-01    1.04036E+01
 8.25877E-01    1.22188E+01
 8.31919E-01    1.26509E+01
 8.56393E-01    1.44553E+01
 8.64607E-01    1.50178E+01
 8.88481E-01    1.62847E+01
 8.89768E-01    1.63276E+01
 9.00000E-01    1.66884E+01
 1.00000E+00    1.97404E+01
 1.10000E+00    2.07151E+01
 1.20000E+00    2.06211E+01
 1.30000E+00    1.98566E+01
 1.40000E+00    1.87432E+01
 1.50000E+00    1.74125E+01
 1.60000E+00    1.59446E+01
 1.70000E+00    1.44454E+01
 1.80000E+00    1.29309E+01
 1.90000E+00    1.15160E+01
 2.00000E+00    1.01692E+01
 2.25000E+00    7.51935E+00
 2.50000E+00    5.18684E+00
 2.75000E+00    3.71698E+00
 3.00000E+00    2.62330E+00
 3.50000E+00    1.27209E+00
 4.00000E+00    6.21452E-01
 4.50000E+00    3.12682E-01
 5.00000E+00    1.67616E-01
 5.50000E+00    9.96075E-02
 6.00000E+00    6.72595E-02
 6.50000E+00    5.12033E-02
 7.00000E+00    4.26564E-02
 7.50000E+00    3.75724E-02
 8.00000E+00    3.41152E-02
 8.50000E+00    3.14734E-02
 9.00000E+00    2.92889E-02
 9.50000E+00    2.73961E-02
 1.00000E+01    2.57135E-02
 1.05000E+01    2.42051E-02
 1.10000E+01    2.28120E-02
 1.15000E+01    2.15560E-02
 1.20000E+01    2.03865E-02
 1.25000E+01    1.93249E-02
 1.30000E+01    1.83337E-02
 1.35000E+01    1.74294E-02
 1.40000E+01    1.65842E-02
 1.45000E+01    1.58091E-02
 1.50000E+01    1.50844E-02
 1.55000E+01    1.44174E-02
 1.60000E+01    1.37914E-02
 1.65000E+01    1.32074E-02
 1.70000E+01    1.26613E-02
 1.75000E+01    1.21474E-02
 1.80000E+01    1.16666E-02
 1.85000E+01    1.12069E-02
 1.90000E+01    1.07781E-02
 1.95000E+01    1.03651E-02
 2.00000E+01    9.97838E-03
