# n + Dy163 : (n,n'12)  
# jendl4.0   N.Iwamoto,S.Chiba                 EVAL-Nov09
# uncertainties: n
# # energies =    83
#   E(MeV)       xs(mb) 
 4.30328E-01    0.00000E+00
 4.52786E-01    8.46390E+01
 4.78331E-01    1.14478E+02
 5.00000E-01    1.28403E+02
 5.00278E-01    1.28596E+02
 5.17738E-01    1.39480E+02
 5.56444E-01    1.54695E+02
 5.69504E-01    1.57230E+02
 5.72231E-01    1.57203E+02
 5.91569E-01    1.60231E+02
 6.00000E-01    1.61540E+02
 6.15789E-01    1.64007E+02
 6.50250E-01    1.66984E+02
 6.64086E-01    1.67575E+02
 7.00000E-01    1.67040E+02
 7.09364E-01    1.67215E+02
 7.15877E-01    1.67217E+02
 7.16408E-01    1.66834E+02
 7.22717E-01    1.65053E+02
 7.32104E-01    1.63911E+02
 7.42226E-01    1.62583E+02
 7.44581E-01    1.62211E+02
 7.70952E-01    1.59467E+02
 7.85935E-01    1.57538E+02
 7.98306E-01    1.55526E+02
 8.00000E-01    1.55282E+02
 8.06273E-01    1.54550E+02
 8.25877E-01    1.51812E+02
 8.31919E-01    1.50638E+02
 8.56393E-01    1.46964E+02
 8.64607E-01    1.45572E+02
 8.88481E-01    1.42098E+02
 8.89768E-01    1.41652E+02
 9.00000E-01    1.39871E+02
 1.00000E+00    1.26092E+02
 1.10000E+00    1.12441E+02
 1.20000E+00    9.98623E+01
 1.30000E+00    8.79472E+01
 1.40000E+00    7.70789E+01
 1.50000E+00    6.69878E+01
 1.60000E+00    5.81578E+01
 1.70000E+00    5.00995E+01
 1.80000E+00    4.30984E+01
 1.90000E+00    3.71999E+01
 2.00000E+00    3.18705E+01
 2.25000E+00    2.21560E+01
 2.50000E+00    1.49143E+01
 2.75000E+00    1.03032E+01
 3.00000E+00    7.12535E+00
 3.50000E+00    3.35533E+00
 4.00000E+00    1.58936E+00
 4.50000E+00    7.60375E-01
 5.00000E+00    3.76796E-01
 5.50000E+00    2.01251E-01
 6.00000E+00    1.20576E-01
 6.50000E+00    8.25313E-02
 7.00000E+00    6.37807E-02
 7.50000E+00    5.37217E-02
 8.00000E+00    4.75989E-02
 8.50000E+00    4.33372E-02
 9.00000E+00    4.00333E-02
 9.50000E+00    3.72815E-02
 1.00000E+01    3.48912E-02
 1.05000E+01    3.27794E-02
 1.10000E+01    3.08459E-02
 1.15000E+01    2.91103E-02
 1.20000E+01    2.75008E-02
 1.25000E+01    2.60411E-02
 1.30000E+01    2.46832E-02
 1.35000E+01    2.34454E-02
 1.40000E+01    2.22922E-02
 1.45000E+01    2.12347E-02
 1.50000E+01    2.02489E-02
 1.55000E+01    1.93418E-02
 1.60000E+01    1.84928E-02
 1.65000E+01    1.76987E-02
 1.70000E+01    1.69566E-02
 1.75000E+01    1.62581E-02
 1.80000E+01    1.56042E-02
 1.85000E+01    1.49828E-02
 1.90000E+01    1.44043E-02
 1.95000E+01    1.38480E-02
 2.00000E+01    1.33256E-02
