# n + Dy163 : (n,n'22)  
# jendl4.0   N.Iwamoto,S.Chiba                 EVAL-Nov09
# uncertainties: n
# # energies =    71
#   E(MeV)       xs(mb) 
 6.50250E-01    0.00000E+00
 6.64086E-01    1.45219E+01
 7.00000E-01    2.77235E+01
 7.09364E-01    3.03208E+01
 7.15877E-01    3.20385E+01
 7.16408E-01    3.21751E+01
 7.22717E-01    3.37292E+01
 7.32104E-01    3.56481E+01
 7.42226E-01    3.72766E+01
 7.44581E-01    3.77106E+01
 7.70952E-01    4.22665E+01
 7.85935E-01    4.46149E+01
 7.98306E-01    4.62748E+01
 8.00000E-01    4.65032E+01
 8.06273E-01    4.73281E+01
 8.25877E-01    4.95001E+01
 8.31919E-01    5.01849E+01
 8.56393E-01    5.24596E+01
 8.64607E-01    5.29258E+01
 8.88481E-01    5.46123E+01
 8.89768E-01    5.46912E+01
 9.00000E-01    5.53838E+01
 1.00000E+00    5.93655E+01
 1.10000E+00    5.93890E+01
 1.20000E+00    5.76523E+01
 1.30000E+00    5.44757E+01
 1.40000E+00    5.06909E+01
 1.50000E+00    4.65143E+01
 1.60000E+00    4.20001E+01
 1.70000E+00    3.74910E+01
 1.80000E+00    3.32712E+01
 1.90000E+00    2.93150E+01
 2.00000E+00    2.56566E+01
 2.25000E+00    1.85801E+01
 2.50000E+00    1.28305E+01
 2.75000E+00    9.13277E+00
 3.00000E+00    6.57716E+00
 3.50000E+00    3.28514E+00
 4.00000E+00    1.66637E+00
 4.50000E+00    8.73569E-01
 5.00000E+00    4.90422E-01
 5.50000E+00    3.06286E-01
 6.00000E+00    2.16206E-01
 6.50000E+00    1.69850E-01
 7.00000E+00    1.44036E-01
 7.50000E+00    1.27941E-01
 8.00000E+00    1.16572E-01
 8.50000E+00    1.07674E-01
 9.00000E+00    1.00220E-01
 9.50000E+00    9.37207E-02
 1.00000E+01    8.79316E-02
 1.05000E+01    8.27447E-02
 1.10000E+01    7.79569E-02
 1.15000E+01    7.36401E-02
 1.20000E+01    6.96250E-02
 1.25000E+01    6.59805E-02
 1.30000E+01    6.25815E-02
 1.35000E+01    5.94801E-02
 1.40000E+01    5.65848E-02
 1.45000E+01    5.39287E-02
 1.50000E+01    5.14481E-02
 1.55000E+01    4.91619E-02
 1.60000E+01    4.70291E-02
 1.65000E+01    4.50274E-02
 1.70000E+01    4.31561E-02
 1.75000E+01    4.13952E-02
 1.80000E+01    3.97473E-02
 1.85000E+01    3.81803E-02
 1.90000E+01    3.67222E-02
 1.95000E+01    3.53101E-02
 2.00000E+01    3.39836E-02
