# n + Dy163 : (n,n'37)  
# jendl4.0   N.Iwamoto,S.Chiba                 EVAL-Nov09
# uncertainties: n
# # energies =    54
#   E(MeV)       xs(mb) 
 8.56393E-01    0.00000E+00
 8.64607E-01    8.59715E+00
 8.88481E-01    1.73942E+01
 8.89768E-01    1.77619E+01
 9.00000E-01    2.05973E+01
 1.00000E+00    3.90375E+01
 1.10000E+00    4.67770E+01
 1.20000E+00    4.89028E+01
 1.30000E+00    4.78183E+01
 1.40000E+00    4.52832E+01
 1.50000E+00    4.20464E+01
 1.60000E+00    3.84690E+01
 1.70000E+00    3.48343E+01
 1.80000E+00    3.12649E+01
 1.90000E+00    2.78057E+01
 2.00000E+00    2.46021E+01
 2.25000E+00    1.80783E+01
 2.50000E+00    1.25579E+01
 2.75000E+00    8.95079E+00
 3.00000E+00    6.41713E+00
 3.50000E+00    3.17188E+00
 4.00000E+00    1.58890E+00
 4.50000E+00    8.23862E-01
 5.00000E+00    4.56485E-01
 5.50000E+00    2.80047E-01
 6.00000E+00    1.94003E-01
 6.50000E+00    1.50209E-01
 7.00000E+00    1.26308E-01
 7.50000E+00    1.11768E-01
 8.00000E+00    1.01736E-01
 8.50000E+00    9.41233E-02
 9.00000E+00    8.77846E-02
 9.50000E+00    8.22615E-02
 1.00000E+01    7.73267E-02
 1.05000E+01    7.28852E-02
 1.10000E+01    6.87628E-02
 1.15000E+01    6.50303E-02
 1.20000E+01    6.15347E-02
 1.25000E+01    5.83482E-02
 1.30000E+01    5.53564E-02
 1.35000E+01    5.26154E-02
 1.40000E+01    5.00393E-02
 1.45000E+01    4.76669E-02
 1.50000E+01    4.54362E-02
 1.55000E+01    4.35881E-02
 1.60000E+01    4.14136E-02
 1.65000E+01    3.96673E-02
 1.70000E+01    3.83244E-02
 1.75000E+01    3.68971E-02
 1.80000E+01    3.51057E-02
 1.85000E+01    3.36813E-02
 1.90000E+01    3.23999E-02
 1.95000E+01    3.15064E-02
 2.00000E+01    3.04879E-02
