# n + Hg196 : (n,xn)    
# jendl4.0   K.SHIBATA, T.FUKAHORI, S.CHIBA,+  EVAL-SEP97
# 
# # energies =   114
#   E(MeV)        xs(mb) 
 4.28170E-01    0.00000E+00
 4.28193E-01    1.54087E-02
 4.30000E-01    1.22941E+01
 4.47500E-01    1.20046E+02
 4.65000E-01    2.23776E+02
 5.00000E-01    4.20325E+02
 6.00000E-01    6.28121E+02
 7.00000E-01    7.55945E+02
 8.00000E-01    8.68704E+02
 1.00000E+00    9.76435E+02
 1.04153E+00    9.61039E+02
 1.06636E+00    9.75675E+02
 1.06759E+00    9.77010E+02
 1.09365E+00    1.00453E+03
 1.14576E+00    1.05698E+03
 1.19788E+00    1.10624E+03
 1.25000E+00    1.15259E+03
 1.31250E+00    1.20988E+03
 1.32569E+00    1.22123E+03
 1.37500E+00    1.28122E+03
 1.39776E+00    1.30743E+03
 1.43750E+00    1.39665E+03
 1.50000E+00    1.53076E+03
 1.62500E+00    1.55486E+03
 1.75000E+00    1.57447E+03
 1.76584E+00    1.57656E+03
 1.78444E+00    1.58124E+03
 1.79419E+00    1.58837E+03
 1.82404E+00    1.61109E+03
 1.85027E+00    1.64395E+03
 1.85450E+00    1.64927E+03
 1.87500E+00    1.68274E+03
 1.93139E+00    1.76923E+03
 1.98888E+00    1.88930E+03
 2.00000E+00    1.92293E+03
 2.02266E+00    1.93186E+03
 2.07432E+00    1.96047E+03
 2.12500E+00    1.98855E+03
 2.25000E+00    2.05263E+03
 2.27425E+00    2.06415E+03
 2.35808E+00    2.10399E+03
 2.37175E+00    2.11172E+03
 2.37500E+00    2.11356E+03
 2.46784E+00    2.16270E+03
 2.50000E+00    2.18816E+03
 2.50834E+00    2.18102E+03
 2.50885E+00    2.18065E+03
 2.56693E+00    2.20753E+03
 2.62500E+00    2.23285E+03
 2.68750E+00    2.25991E+03
 2.75000E+00    2.28532E+03
 2.81250E+00    2.31048E+03
 2.87500E+00    2.33414E+03
 3.00000E+00    2.37963E+03
 3.06250E+00    2.39649E+03
 3.12500E+00    2.41139E+03
 3.18750E+00    2.42709E+03
 3.25000E+00    2.44098E+03
 3.31250E+00    2.45560E+03
 3.37500E+00    2.46856E+03
 3.43750E+00    2.48219E+03
 3.50000E+00    2.49427E+03
 3.62500E+00    2.52170E+03
 3.75000E+00    2.54752E+03
 3.87500E+00    2.57183E+03
 4.00000E+00    2.59472E+03
 4.12500E+00    2.59928E+03
 4.25000E+00    2.60224E+03
 4.50000E+00    2.60878E+03
 4.75000E+00    2.61446E+03
 5.00000E+00    2.61936E+03
 5.50000E+00    2.56724E+03
 6.00000E+00    2.51919E+03
 8.00000E+00    2.43879E+03
 8.25000E+00    2.35527E+03
 8.50000E+00    2.27408E+03
 8.75000E+00    2.19508E+03
 9.00000E+00    2.33694E+03
 9.25000E+00    2.52712E+03
 9.50000E+00    2.71916E+03
 9.75000E+00    2.91294E+03
 1.00000E+01    3.10839E+03
 1.02500E+01    3.20986E+03
 1.05000E+01    3.31432E+03
 1.07500E+01    3.42162E+03
 1.10000E+01    3.53164E+03
 1.12500E+01    3.64424E+03
 1.15000E+01    3.75933E+03
 1.17500E+01    3.87678E+03
 1.20000E+01    3.99651E+03
 1.22500E+01    4.04438E+03
 1.25000E+01    4.09322E+03
 1.27500E+01    4.14300E+03
 1.30000E+01    4.19366E+03
 1.32500E+01    4.24519E+03
 1.35000E+01    4.29754E+03
 1.37500E+01    4.35069E+03
 1.40000E+01    4.40460E+03
 1.42500E+01    4.43809E+03
 1.45000E+01    4.47189E+03
 1.47500E+01    4.50597E+03
 1.50000E+01    4.54033E+03
 1.52500E+01    4.57496E+03
 1.55000E+01    4.60986E+03
 1.57500E+01    4.64501E+03
 1.60000E+01    4.68209E+03
 1.65000E+01    4.73199E+03
 1.70000E+01    4.78234E+03
 1.75000E+01    4.83310E+03
 1.80000E+01    4.88427E+03
 1.85000E+01    4.97446E+03
 1.90000E+01    5.06490E+03
 1.95000E+01    5.15558E+03
 2.00000E+01    5.24647E+03
