# n + Sm154 : (n,n'15)  
# jendl4.0   N.Iwamoto                         EVAL-Nov09
# uncertainties: n
# # energies =    69
#   E(MeV)       xs(mb) 
 1.34153E+00    0.00000E+00
 1.34641E+00    3.88070E-09
 1.37394E+00    4.27650E-08
 1.37998E+00    5.80720E-08
 1.40000E+00    1.34270E-07
 1.44038E+00    4.74960E-07
 1.44949E+00    5.78480E-07
 1.48178E+00    1.17679E-06
 1.48467E+00    1.24797E-06
 1.48538E+00    1.26305E-06
 1.50000E+00    1.66618E-06
 1.52512E+00    2.62229E-06
 1.54935E+00    3.91480E-06
 1.58694E+00    6.91471E-06
 1.59493E+00    7.66247E-06
 1.60000E+00    8.18420E-06
 1.62540E+00    1.11206E-05
 1.67279E+00    1.89570E-05
 1.67580E+00    1.95784E-05
 1.68480E+00    2.15367E-05
 1.70000E+00    2.52301E-05
 1.71800E+00    3.02804E-05
 1.75241E+00    4.20739E-05
 1.76614E+00    4.63066E-05
 1.76740E+00    4.67878E-05
 1.77153E+00    4.84181E-05
 1.77596E+00    5.00637E-05
 1.78587E+00    5.42682E-05
 1.80000E+00    6.08468E-05
 1.90000E+00    1.26770E-04
 2.00000E+00    2.31073E-04
 2.25000E+00    7.69822E-04
 2.50000E+00    1.72116E-03
 2.75000E+00    3.40369E-03
 3.00000E+00    4.33689E-01
 3.50000E+00    4.29002E-01
 4.00000E+00    4.16685E-01
 4.50000E+00    3.97247E-01
 5.00000E+00    3.73149E-01
 5.50000E+00    3.46725E-01
 6.00000E+00    3.20426E-01
 6.50000E+00    2.95596E-01
 7.00000E+00    2.72780E-01
 7.50000E+00    2.51810E-01
 8.00000E+00    2.32444E-01
 8.50000E+00    2.14558E-01
 9.00000E+00    1.98149E-01
 9.50000E+00    1.83268E-01
 1.00000E+01    1.69922E-01
 1.05000E+01    1.58056E-01
 1.10000E+01    1.47531E-01
 1.15000E+01    1.38211E-01
 1.20000E+01    1.29876E-01
 1.25000E+01    1.22351E-01
 1.30000E+01    1.15504E-01
 1.35000E+01    1.09224E-01
 1.40000E+01    1.03424E-01
 1.45000E+01    9.80468E-02
 1.50000E+01    9.30449E-02
 1.55000E+01    8.83393E-02
 1.60000E+01    8.37317E-02
 1.65000E+01    7.98518E-02
 1.70000E+01    7.62494E-02
 1.75000E+01    7.26548E-02
 1.80000E+01    6.91758E-02
 1.85000E+01    6.59873E-02
 1.90000E+01    6.32457E-02
 1.95000E+01    6.06907E-02
 2.00000E+01    5.81783E-02
