# n + Sm154 : (n,tot)   
# jendl4.0   N.Iwamoto                         EVAL-Nov09
# uncertainties: n
# # energies =   171
#   E(MeV)       xs(mb) 
 1.00000E-11    1.08026E+05
 1.00000E-07    1.39783E+04
 4.13990E-07    1.28654E+04
 5.31580E-07    1.26179E+04
 6.82560E-07    1.23937E+04
 8.76420E-07    1.21886E+04
 1.12540E-06    1.20007E+04
 1.44500E-06    1.18246E+04
 1.85540E-06    1.16576E+04
 2.37240E-06    1.14936E+04
 3.05900E-06    1.13237E+04
 3.92790E-06    1.11559E+04
 5.04350E-06    1.09834E+04
 6.47600E-06    1.07954E+04
 8.31530E-06    1.06000E+04
 1.06770E-05    1.03877E+04
 1.37100E-05    1.01533E+04
 1.76030E-05    9.89972E+03
 2.26030E-05    9.61273E+03
 2.92030E-05    9.27453E+03
 3.72670E-05    8.85960E+03
 4.78510E-05    8.25559E+03
 6.14420E-05    6.97863E+03
 7.88930E-05    2.71666E+05
 1.01300E-04    1.39188E+04
 1.30070E-04    1.04708E+04
 1.67020E-04    9.31128E+03
 2.14450E-04    4.63204E+04
 2.75360E-04    1.21909E+04
 3.53580E-04    8.00730E+03
 4.54000E-04    2.11009E+04
 5.82950E-04    3.89715E+04
 7.48520E-04    8.52592E+04
 9.61120E-04    1.24844E+04
 1.23410E-03    3.10176E+04
 1.58460E-03    4.21668E+04
 2.03470E-03    3.77379E+04
 2.24870E-03    1.98730E+04
 2.48520E-03    4.91161E+04
 2.61260E-03    1.52512E+04
 2.74650E-03    2.21720E+04
 3.03540E-03    3.77433E+04
 3.35460E-03    3.61159E+04
 3.70740E-03    3.42010E+04
 4.30740E-03    3.14842E+04
 5.53080E-03    2.83998E+04
 7.10170E-03    2.56616E+04
 9.11880E-03    2.32455E+04
 1.17090E-02    2.11440E+04
 1.50340E-02    1.92403E+04
 1.93050E-02    1.79311E+04
 2.18750E-02    1.72973E+04
 2.35790E-02    1.69892E+04
 2.41760E-02    1.68373E+04
 2.47880E-02    1.66128E+04
 2.60580E-02    1.63603E+04
 2.70000E-02    1.60994E+04
 2.85000E-02    1.56348E+04
 3.18280E-02    1.51345E+04
 3.43070E-02    1.44910E+04
 4.08680E-02    1.37690E+04
 4.63090E-02    1.32080E+04
 5.24750E-02    1.27744E+04
 5.65620E-02    1.22604E+04
 6.73790E-02    1.17913E+04
 7.20000E-02    1.14860E+04
 7.95000E-02    1.12408E+04
 8.25000E-02    1.10917E+04
 8.65170E-02    1.07935E+04
 9.80370E-02    1.03863E+04
 1.11090E-01    1.01248E+04
 1.16790E-01    9.97874E+03
 1.22770E-01    9.83468E+03
 1.29070E-01    9.69251E+03
 1.35690E-01    9.55273E+03
 1.42640E-01    9.41480E+03
 1.49960E-01    9.28055E+03
 1.57640E-01    9.15466E+03
 1.65730E-01    9.04409E+03
 1.74220E-01    8.93566E+03
 1.83160E-01    8.82858E+03
 1.92550E-01    8.72311E+03
 2.02420E-01    8.61842E+03
 2.12800E-01    8.51516E+03
 2.23710E-01    8.41291E+03
 2.35180E-01    8.31223E+03
 2.47240E-01    8.19355E+03
 2.73240E-01    8.09907E+03
 2.87250E-01    8.04931E+03
 2.94520E-01    8.02607E+03
 2.97200E-01    8.01679E+03
 2.98500E-01    8.00627E+03
 3.01970E-01    7.94315E+03
 3.33730E-01    7.82232E+03
 3.68830E-01    7.72968E+03
 3.87740E-01    7.67420E+03
 4.07620E-01    7.63376E+03
 4.50490E-01    7.59181E+03
 4.97870E-01    7.55763E+03
 5.23400E-01    7.53328E+03
 5.50230E-01    7.50810E+03
 5.78440E-01    7.48993E+03
 6.08100E-01    7.47408E+03
 6.39280E-01    7.45743E+03
 6.72060E-01    7.44086E+03
 7.06510E-01    7.43005E+03
 7.42740E-01    7.41996E+03
 7.80820E-01    7.40936E+03
 8.20850E-01    7.39821E+03
 8.62940E-01    7.38650E+03
 9.07180E-01    7.37312E+03
 9.61640E-01    7.36013E+03
 1.00260E+00    7.33964E+03
 1.10800E+00    7.30683E+03
 1.16480E+00    7.27959E+03
 1.22460E+00    7.25097E+03
 1.28730E+00    7.22088E+03
 1.35340E+00    7.18870E+03
 1.42270E+00    7.14720E+03
 1.49570E+00    7.10105E+03
 1.57240E+00    7.05254E+03
 1.65300E+00    7.00158E+03
 1.73770E+00    6.94799E+03
 1.82680E+00    6.89030E+03
 1.92050E+00    6.82398E+03
 2.01900E+00    6.75365E+03
 2.12250E+00    6.67973E+03
 2.23130E+00    6.61535E+03
 2.30690E+00    6.57540E+03
 2.34570E+00    6.55503E+03
 2.36530E+00    6.54127E+03
 2.38520E+00    6.50635E+03
 2.46600E+00    6.43440E+03
 2.59240E+00    6.34412E+03
 2.72530E+00    6.24921E+03
 2.86500E+00    6.14942E+03
 3.01190E+00    6.04448E+03
 3.16640E+00    5.93444E+03
 3.32870E+00    5.77544E+03
 3.67880E+00    5.55714E+03
 4.06570E+00    5.34701E+03
 4.49330E+00    5.19832E+03
 4.72370E+00    5.11091E+03
 4.96590E+00    5.02915E+03
 5.22050E+00    4.96331E+03
 5.48810E+00    4.90450E+03
 5.76950E+00    4.86117E+03
 6.06530E+00    4.83108E+03
 6.37630E+00    4.81432E+03
 6.59240E+00    4.80649E+03
 6.70320E+00    4.80267E+03
 7.04690E+00    4.80745E+03
 7.40820E+00    4.81919E+03
 7.78800E+00    4.83746E+03
 8.18730E+00    4.86504E+03
 8.60710E+00    4.89448E+03
 9.04840E+00    4.93315E+03
 9.51230E+00    4.97680E+03
 1.00000E+01    5.02375E+03
 1.05130E+01    5.07482E+03
 1.10520E+01    5.12659E+03
 1.16180E+01    5.17593E+03
 1.22140E+01    5.21961E+03
 1.28400E+01    5.25458E+03
 1.34990E+01    5.27361E+03
 1.38400E+01    5.28222E+03
 1.41910E+01    5.28699E+03
 1.45500E+01    5.28798E+03
 1.49180E+01    5.28197E+03
 1.56830E+01    5.25978E+03
 1.64870E+01    5.22059E+03
