# n + Th232 : (n,tot)   
# jendl.ad   O.Iwamoto,T.Nakagawa,et al.       EVAL-JAN10
# uncertainties: n
# # energies =    69
#   E(MeV)       xs(mb) 
 1.00000E-10    5.18388E+04
 5.00000E-09    1.40717E+04
 1.00000E-08    1.06307E+04
 1.50000E-08    8.91119E+03
 2.00000E-08    7.82095E+03
 2.50000E-08    7.04908E+03
 3.00000E-08    6.46424E+03
 3.50000E-08    5.92669E+03
 4.20000E-08    5.40299E+03
 5.00000E-08    4.96464E+03
 5.80000E-08    4.59590E+03
 6.70000E-08    4.21968E+03
 8.00000E-08    3.79068E+03
 1.00000E-07    3.25435E+03
 1.40000E-07    2.75714E+03
 1.80000E-07    2.41873E+03
 2.20000E-07    2.19262E+03
 2.50000E-07    2.03735E+03
 2.80000E-07    1.92537E+03
 3.00000E-07    1.84624E+03
 3.20000E-07    1.75788E+03
 3.50000E-07    1.63602E+03
 4.00000E-07    1.45300E+03
 5.00000E-07    1.24316E+03
 6.25000E-07    1.05474E+03
 7.80000E-07    9.35494E+02
 8.50000E-07    8.79960E+02
 9.10000E-07    8.40291E+02
 9.50000E-07    8.17770E+02
 9.72000E-07    8.01966E+02
 9.96000E-07    7.85770E+02
 1.02000E-06    7.70010E+02
 1.04500E-06    7.54297E+02
 1.07100E-06    7.38872E+02
 1.09700E-06    7.24188E+02
 1.12300E-06    7.09757E+02
 1.15000E-06    6.65670E+02
 1.30000E-06    5.90560E+02
 1.50000E-06    4.72322E+02
 2.10000E-06    3.58026E+02
 2.60000E-06    2.82866E+02
 3.30000E-06    2.24770E+02
 4.00000E-06    1.51435E+02
 9.87700E-06    1.20348E+02
 1.59680E-05    7.45363E+04
 2.77000E-05    8.24606E+01
 4.80520E-05    3.74634E+04
 7.55014E-05    9.83291E+03
 1.48728E-04    1.07469E+04
 3.67262E-04    3.45383E+03
 9.06898E-04    2.20030E+03
 1.42510E-03    1.99859E+03
 2.23945E-03    1.43767E+03
 3.51910E-03    1.09609E+03
 5.53000E-03    9.21347E+02
 9.11800E-03    7.55570E+02
 1.50300E-02    6.17719E+02
 2.47800E-02    4.99140E+02
 4.08500E-02    3.81851E+02
 6.73400E-02    2.49897E+02
 1.11000E-01    1.77763E+02
 1.83000E-01    1.54033E+02
 3.02000E-01    1.46897E+02
 5.00000E-01    1.72827E+02
 8.21000E-01    1.50305E+02
 1.35300E+00    1.90300E+02
 2.23100E+00    1.70100E+02
 3.67900E+00    1.58918E+02
 6.06500E+00    1.38961E+03
