# n + Dy156 : (n,d)     
# jendl.ad   N.Iwamoto                         EVAL-Apr14
# uncertainties: n
# # energies =    52
#   E(MeV)       xs(mb) 
 4.36789E+00    0.00000E+00
 4.43378E+00    5.60660E-22
 4.52469E+00    1.41160E-21
 4.59628E+00    9.11770E-18
 4.61954E+00    1.24760E-17
 4.64069E+00    1.57080E-17
 4.64374E+00    1.61880E-17
 4.68699E+00    2.31780E-17
 4.70491E+00    2.60960E-17
 4.76782E+00    3.64000E-17
 4.77921E+00    3.82670E-17
 4.82322E+00    4.54840E-17
 4.83771E+00    4.78610E-17
 4.86976E+00    5.31180E-17
 4.87958E+00    5.47280E-17
 4.88878E+00    5.62370E-17
 4.91631E+00    6.07530E-17
 4.92105E+00    6.15310E-17
 4.92666E+00    6.24510E-17
 4.94765E+00    6.58940E-17
 4.96755E+00    6.91580E-17
 4.98788E+00    7.24930E-17
 5.50000E+00    1.56500E-16
 6.00000E+00    4.13920E-15
 6.50000E+00    8.87320E-12
 7.00000E+00    1.23570E-09
 7.50000E+00    5.38700E-08
 8.00000E+00    1.23233E-06
 8.50000E+00    1.47926E-05
 9.00000E+00    1.15341E-04
 9.50000E+00    6.39564E-04
 1.00000E+01    2.70652E-03
 1.05000E+01    9.21273E-03
 1.10000E+01    2.61709E-02
 1.15000E+01    6.38783E-02
 1.20000E+01    1.36570E-01
 1.25000E+01    2.60452E-01
 1.30000E+01    4.49357E-01
 1.35000E+01    7.12276E-01
 1.40000E+01    1.05076E+00
 1.45000E+01    1.46157E+00
 1.50000E+01    1.93671E+00
 1.55000E+01    2.45134E+00
 1.60000E+01    3.03401E+00
 1.65000E+01    3.68494E+00
 1.70000E+01    4.29880E+00
 1.75000E+01    4.95590E+00
 1.80000E+01    5.65497E+00
 1.85000E+01    6.28274E+00
 1.90000E+01    7.05227E+00
 1.95000E+01    7.59028E+00
 2.00000E+01    8.40993E+00
