# n + Fe 57 : (n,g)     
# jendl4.0   S.IIJIMA,H.YAMAKOSHI              EVAL-MAR87
# uncertainties: n
# # energies =    69
#   E(MeV)       xs(mb) 
 1.00000E-10    1.71930E+04
 5.00000E-09    4.68136E+03
 1.00000E-08    3.54539E+03
 1.50000E-08    2.97879E+03
 2.00000E-08    2.62077E+03
 2.50000E-08    2.36773E+03
 3.00000E-08    2.17650E+03
 3.50000E-08    2.00112E+03
 4.20000E-08    1.83035E+03
 5.00000E-08    1.68830E+03
 5.80000E-08    1.56917E+03
 6.70000E-08    1.44812E+03
 8.00000E-08    1.31041E+03
 1.00000E-07    1.14007E+03
 1.40000E-07    9.83770E+02
 1.80000E-07    8.78446E+02
 2.20000E-07    8.08984E+02
 2.50000E-07    7.61635E+02
 2.80000E-07    7.27638E+02
 3.00000E-07    7.03747E+02
 3.20000E-07    6.77172E+02
 3.50000E-07    6.40494E+02
 4.00000E-07    5.86050E+02
 5.00000E-07    5.24191E+02
 6.25000E-07    4.69042E+02
 7.80000E-07    4.34155E+02
 8.50000E-07    4.17727E+02
 9.10000E-07    4.06260E+02
 9.50000E-07    3.99621E+02
 9.72000E-07    3.94929E+02
 9.96000E-07    3.90195E+02
 1.02000E-06    3.85541E+02
 1.04500E-06    3.80881E+02
 1.07100E-06    3.76293E+02
 1.09700E-06    3.71853E+02
 1.12300E-06    3.67527E+02
 1.15000E-06    3.54389E+02
 1.30000E-06    3.31673E+02
 1.50000E-06    2.94581E+02
 2.10000E-06    2.56579E+02
 2.60000E-06    2.29234E+02
 3.30000E-06    2.05801E+02
 4.00000E-06    1.57779E+02
 9.87700E-06    1.11021E+02
 1.59680E-05    8.59332E+01
 2.77000E-05    6.53513E+01
 4.80520E-05    5.09416E+01
 7.55014E-05    3.87024E+01
 1.48728E-04    2.65465E+01
 3.67262E-04    1.76651E+01
 9.06898E-04    1.37240E+01
 1.42510E-03    1.81627E+02
 2.23945E-03    1.93938E+01
 3.51910E-03    1.26120E+02
 5.53000E-03    2.23522E+02
 9.11800E-03    3.52767E+01
 1.50300E-02    1.95816E+01
 2.47800E-02    5.02924E+01
 4.08500E-02    2.27913E+01
 6.73400E-02    6.12430E+00
 1.11000E-01    3.32295E+00
 1.83000E-01    2.00934E+00
 3.02000E-01    1.53464E+00
 5.00000E-01    1.11762E+00
 8.21000E-01    8.29547E-01
 1.35300E+00    6.60164E-01
 2.23100E+00    5.62626E-01
 3.67900E+00    3.91176E-01
 6.06500E+00    2.55958E-01
