# n + Dy164 : (n,tot)   
# jendl4.0   N.Iwamoto,S.Chiba                 EVAL-Nov09
# uncertainties: n
# # energies =   171
#   E(MeV)       xs(mb) 
 1.00000E-11    2.99128E+07
 1.00000E-07    1.07390E+06
 4.13990E-07    6.27568E+05
 5.31580E-07    5.22245E+05
 6.82560E-07    4.27403E+05
 8.76420E-07    3.43345E+05
 1.12540E-06    2.70472E+05
 1.44500E-06    2.08867E+05
 1.85540E-06    1.58560E+05
 2.37240E-06    1.18122E+05
 3.05900E-06    8.65299E+04
 3.92790E-06    6.30219E+04
 5.04350E-06    4.57747E+04
 6.47600E-06    3.33745E+04
 8.31530E-06    2.45702E+04
 1.06770E-05    1.83721E+04
 1.37100E-05    1.40163E+04
 1.76030E-05    1.09303E+04
 2.26030E-05    8.69147E+03
 2.92030E-05    7.06210E+03
 3.72670E-05    5.82284E+03
 4.78510E-05    4.77740E+03
 6.14420E-05    3.78400E+03
 7.88930E-05    2.61302E+03
 1.01300E-04    1.21014E+03
 1.30070E-04    6.23252E+05
 1.67020E-04    1.47005E+04
 2.14450E-04    8.29963E+03
 2.75360E-04    6.41571E+03
 3.53580E-04    2.52237E+04
 4.54000E-04    1.42054E+04
 5.82950E-04    5.39057E+03
 7.48520E-04    1.75406E+04
 9.61120E-04    1.74466E+04
 1.23410E-03    1.39835E+04
 1.58460E-03    2.04449E+04
 2.03470E-03    6.05776E+03
 2.24870E-03    2.29006E+04
 2.48520E-03    1.38438E+04
 2.61260E-03    4.90010E+03
 2.74650E-03    3.13937E+04
 3.03540E-03    7.71384E+03
 3.35460E-03    1.21594E+04
 3.70740E-03    9.66988E+03
 4.30740E-03    2.68561E+04
 5.53080E-03    2.07773E+04
 7.10170E-03    1.49471E+04
 9.11880E-03    1.41722E+04
 1.17090E-02    1.33051E+04
 1.50340E-02    1.25000E+04
 1.93050E-02    1.19342E+04
 2.18750E-02    1.16606E+04
 2.35790E-02    1.15267E+04
 2.41760E-02    1.14607E+04
 2.47880E-02    1.13624E+04
 2.60580E-02    1.12507E+04
 2.70000E-02    1.11353E+04
 2.85000E-02    1.09303E+04
 3.18280E-02    1.07196E+04
 3.43070E-02    1.04462E+04
 4.08680E-02    1.01267E+04
 4.63090E-02    9.87033E+03
 5.24750E-02    9.68544E+03
 5.65620E-02    9.46640E+03
 6.73790E-02    9.25908E+03
 7.20000E-02    9.12268E+03
 7.95000E-02    9.01725E+03
 8.25000E-02    8.95349E+03
 8.65170E-02    8.82495E+03
 9.80370E-02    8.64596E+03
 1.11090E-01    8.52816E+03
 1.16790E-01    8.46176E+03
 1.22770E-01    8.39586E+03
 1.29070E-01    8.33300E+03
 1.35690E-01    8.27532E+03
 1.42640E-01    8.21835E+03
 1.49960E-01    8.16135E+03
 1.57640E-01    8.10469E+03
 1.65730E-01    8.04851E+03
 1.74220E-01    7.99274E+03
 1.83160E-01    7.93733E+03
 1.92550E-01    7.88278E+03
 2.02420E-01    7.83984E+03
 2.12800E-01    7.80056E+03
 2.23710E-01    7.75927E+03
 2.35180E-01    7.71586E+03
 2.47240E-01    7.64969E+03
 2.73240E-01    7.59099E+03
 2.87250E-01    7.56119E+03
 2.94520E-01    7.54727E+03
 2.97200E-01    7.54172E+03
 2.98500E-01    7.53507E+03
 3.01970E-01    7.50206E+03
 3.33730E-01    7.45309E+03
 3.68830E-01    7.41353E+03
 3.87740E-01    7.38588E+03
 4.07620E-01    7.36450E+03
 4.50490E-01    7.34142E+03
 4.97870E-01    7.32894E+03
 5.23400E-01    7.33109E+03
 5.50230E-01    7.33341E+03
 5.78440E-01    7.33586E+03
 6.08100E-01    7.33842E+03
 6.39280E-01    7.34294E+03
 6.72060E-01    7.35071E+03
 7.06510E-01    7.35893E+03
 7.42740E-01    7.36756E+03
 7.80820E-01    7.37664E+03
 8.20850E-01    7.38619E+03
 8.62940E-01    7.39622E+03
 9.07180E-01    7.40657E+03
 9.61640E-01    7.41081E+03
 1.00260E+00    7.40137E+03
 1.10800E+00    7.38543E+03
 1.16480E+00    7.37406E+03
 1.22460E+00    7.35452E+03
 1.28730E+00    7.32611E+03
 1.35340E+00    7.29625E+03
 1.42270E+00    7.26486E+03
 1.49570E+00    7.22883E+03
 1.57240E+00    7.18084E+03
 1.65300E+00    7.12961E+03
 1.73770E+00    7.07574E+03
 1.82680E+00    7.01947E+03
 1.92050E+00    6.96307E+03
 2.01900E+00    6.90244E+03
 2.12250E+00    6.83427E+03
 2.23130E+00    6.77475E+03
 2.30690E+00    6.73781E+03
 2.34570E+00    6.71898E+03
 2.36530E+00    6.70627E+03
 2.38520E+00    6.67444E+03
 2.46600E+00    6.61159E+03
 2.59240E+00    6.53315E+03
 2.72530E+00    6.45068E+03
 2.86500E+00    6.36460E+03
 3.01190E+00    6.28021E+03
 3.16640E+00    6.19309E+03
 3.32870E+00    6.05713E+03
 3.67880E+00    5.87285E+03
 4.06570E+00    5.68658E+03
 4.49330E+00    5.54584E+03
 4.72370E+00    5.46003E+03
 4.96590E+00    5.37214E+03
 5.22050E+00    5.29410E+03
 5.48810E+00    5.21826E+03
 5.76950E+00    5.15170E+03
 6.06530E+00    5.09181E+03
 6.37630E+00    5.04841E+03
 6.59240E+00    5.02396E+03
 6.70320E+00    4.99956E+03
 7.04690E+00    4.96629E+03
 7.40820E+00    4.94418E+03
 7.78800E+00    4.93222E+03
 8.18730E+00    4.92705E+03
 8.60710E+00    4.93659E+03
 9.04840E+00    4.95112E+03
 9.51230E+00    4.97237E+03
 1.00000E+01    5.00360E+03
 1.05130E+01    5.03912E+03
 1.10520E+01    5.07785E+03
 1.16180E+01    5.11891E+03
 1.22140E+01    5.15912E+03
 1.28400E+01    5.19721E+03
 1.34990E+01    5.22214E+03
 1.38400E+01    5.23782E+03
 1.41910E+01    5.24911E+03
 1.45500E+01    5.25978E+03
 1.49180E+01    5.26998E+03
 1.56830E+01    5.27360E+03
 1.64870E+01    5.26326E+03
