# n + Ga 71 : (n,tot)   
# jendl4.0   T.WATANABE                        EVAL-MAR94
# uncertainties: n
# # energies =   171
#   E(MeV)       xs(mb) 
 1.00000E-11    5.03325E+04
 1.00000E-07    6.57670E+03
 4.13990E-07    6.09793E+03
 5.31580E-07    5.99490E+03
 6.82560E-07    5.90344E+03
 8.76420E-07    5.82214E+03
 1.12540E-06    5.75027E+03
 1.44500E-06    5.68592E+03
 1.85540E-06    5.62675E+03
 2.37240E-06    5.57386E+03
 3.05900E-06    5.52069E+03
 3.92790E-06    5.47211E+03
 5.04350E-06    5.42416E+03
 6.47600E-06    5.37481E+03
 8.31530E-06    5.32322E+03
 1.06770E-05    5.26789E+03
 1.37100E-05    5.20167E+03
 1.76030E-05    5.12982E+03
 2.26030E-05    5.03690E+03
 2.92030E-05    4.92341E+03
 3.72670E-05    4.78720E+03
 4.78510E-05    4.61069E+03
 6.14420E-05    4.43051E+03
 7.88930E-05    1.24628E+05
 1.01300E-04    5.07742E+03
 1.30070E-04    3.60108E+03
 1.67020E-04    3.69266E+03
 2.14450E-04    4.28076E+04
 2.75360E-04    7.11040E+05
 3.53580E-04    1.80776E+05
 4.54000E-04    1.52213E+04
 5.82950E-04    1.97563E+04
 7.48520E-04    9.37477E+03
 9.61120E-04    7.87552E+03
 1.23410E-03    2.30566E+04
 1.58460E-03    8.54732E+03
 2.03470E-03    6.12063E+03
 2.24870E-03    2.41633E+04
 2.48520E-03    8.18781E+03
 2.61260E-03    6.55669E+03
 2.74650E-03    1.17800E+04
 3.03540E-03    1.49842E+04
 3.35460E-03    8.73066E+03
 3.70740E-03    6.28846E+03
 4.30740E-03    2.20236E+04
 5.53080E-03    1.17752E+04
 7.10170E-03    1.04476E+04
 9.11880E-03    9.91078E+03
 1.17090E-02    9.46986E+03
 1.50340E-02    9.05467E+03
 1.93050E-02    8.75476E+03
 2.18750E-02    8.59889E+03
 2.35790E-02    8.52202E+03
 2.41760E-02    8.48413E+03
 2.47880E-02    8.43089E+03
 2.60580E-02    8.37574E+03
 2.70000E-02    8.31846E+03
 2.85000E-02    8.21471E+03
 3.18280E-02    8.09889E+03
 3.43070E-02    7.94545E+03
 4.08680E-02    7.76497E+03
 4.63090E-02    7.61823E+03
 5.24750E-02    7.50580E+03
 5.65620E-02    7.36885E+03
 6.73790E-02    7.23865E+03
 7.20000E-02    7.14877E+03
 7.95000E-02    7.07574E+03
 8.25000E-02    7.03032E+03
 8.65170E-02    6.93939E+03
 9.80370E-02    6.80244E+03
 1.11090E-01    6.70001E+03
 1.16790E-01    6.64213E+03
 1.22770E-01    6.58497E+03
 1.29070E-01    6.52809E+03
 1.35690E-01    6.47167E+03
 1.42640E-01    6.41573E+03
 1.49960E-01    6.36025E+03
 1.57640E-01    6.30565E+03
 1.65730E-01    6.25096E+03
 1.74220E-01    6.19690E+03
 1.83160E-01    6.14350E+03
 1.92550E-01    6.09006E+03
 2.02420E-01    6.02758E+03
 2.12800E-01    5.96160E+03
 2.23710E-01    5.89636E+03
 2.35180E-01    5.83185E+03
 2.47240E-01    5.73668E+03
 2.73240E-01    5.64275E+03
 2.87250E-01    5.59645E+03
 2.94520E-01    5.57558E+03
 2.97200E-01    5.56725E+03
 2.98500E-01    5.55694E+03
 3.01970E-01    5.47598E+03
 3.33730E-01    5.33294E+03
 3.68830E-01    5.22800E+03
 3.87740E-01    5.15776E+03
 4.07620E-01    5.04214E+03
 4.50490E-01    4.88989E+03
 4.97870E-01    4.77515E+03
 5.23400E-01    4.69436E+03
 5.50230E-01    4.61367E+03
 5.78440E-01    4.53414E+03
 6.08100E-01    4.45178E+03
 6.39280E-01    4.36932E+03
 6.72060E-01    4.28845E+03
 7.06510E-01    4.20679E+03
 7.42740E-01    4.12398E+03
 7.80820E-01    4.04236E+03
 8.20850E-01    3.96050E+03
 8.62940E-01    3.88007E+03
 9.07180E-01    3.79405E+03
 9.61640E-01    3.71583E+03
 1.00260E+00    3.61159E+03
 1.10800E+00    3.50195E+03
 1.16480E+00    3.43871E+03
 1.22460E+00    3.37364E+03
 1.28730E+00    3.31230E+03
 1.35340E+00    3.25034E+03
 1.42270E+00    3.19691E+03
 1.49570E+00    3.15065E+03
 1.57240E+00    3.11273E+03
 1.65300E+00    3.07796E+03
 1.73770E+00    3.05304E+03
 1.82680E+00    3.03811E+03
 1.92050E+00    3.02649E+03
 2.01900E+00    3.02807E+03
 2.12250E+00    3.03748E+03
 2.23130E+00    3.05290E+03
 2.30690E+00    3.06411E+03
 2.34570E+00    3.06985E+03
 2.36530E+00    3.07548E+03
 2.38520E+00    3.09265E+03
 2.46600E+00    3.12803E+03
 2.59240E+00    3.17243E+03
 2.72530E+00    3.21910E+03
 2.86500E+00    3.26695E+03
 3.01190E+00    3.31573E+03
 3.16640E+00    3.36701E+03
 3.32870E+00    3.44922E+03
 3.67880E+00    3.56128E+03
 4.06570E+00    3.65488E+03
 4.49330E+00    3.71847E+03
 4.72370E+00    3.76377E+03
 4.96590E+00    3.80160E+03
 5.22050E+00    3.83143E+03
 5.48810E+00    3.86280E+03
 5.76950E+00    3.89528E+03
 6.06530E+00    3.91524E+03
 6.37630E+00    3.92714E+03
 6.59240E+00    3.93452E+03
 6.70320E+00    3.94450E+03
 7.04690E+00    3.94584E+03
 7.40820E+00    3.93838E+03
 7.78800E+00    3.92949E+03
 8.18730E+00    3.90561E+03
 8.60710E+00    3.87576E+03
 9.04840E+00    3.83809E+03
 9.51230E+00    3.79121E+03
 1.00000E+01    3.73641E+03
 1.05130E+01    3.67584E+03
 1.10520E+01    3.60647E+03
 1.16180E+01    3.53654E+03
 1.22140E+01    3.45774E+03
 1.28400E+01    3.37916E+03
 1.34990E+01    3.31676E+03
 1.38400E+01    3.27549E+03
 1.41910E+01    3.23430E+03
 1.45500E+01    3.19423E+03
 1.49180E+01    3.13805E+03
 1.56830E+01    3.06937E+03
 1.64870E+01    3.01193E+03
