# n + Sn114 : (n,xp)    
# jendl4.0   N.Iwamoto                         EVAL-Dec09
# 
# # energies =   110
#   E(MeV)        xs(mb) 
 1.05000E-01    0.00000E+00
 1.10000E-01    0.00000E+00
 1.20000E-01    0.00000E+00
 1.30000E-01    0.00000E+00
 1.40000E-01    0.00000E+00
 1.50000E-01    0.00000E+00
 1.60000E-01    0.00000E+00
 1.70000E-01    0.00000E+00
 1.80000E-01    0.00000E+00
 1.90000E-01    0.00000E+00
 2.00000E-01    0.00000E+00
 2.25000E-01    0.00000E+00
 2.50000E-01    0.00000E+00
 2.75000E-01    0.00000E+00
 3.00000E-01    0.00000E+00
 4.00000E-01    0.00000E+00
 5.00000E-01    0.00000E+00
 6.00000E-01    0.00000E+00
 7.00000E-01    0.00000E+00
 8.00000E-01    0.00000E+00
 9.00000E-01    0.00000E+00
 1.00000E+00    0.00000E+00
 1.10000E+00    0.00000E+00
 1.20000E+00    0.00000E+00
 1.30000E+00    1.12190E-11
 1.31142E+00    1.27641E-11
 1.40000E+00    2.47489E-11
 1.50000E+00    3.82792E-11
 1.60000E+00    5.18091E-11
 1.70000E+00    6.53390E-11
 1.80000E+00    7.88684E-11
 1.90000E+00    9.23991E-11
 1.97057E+00    1.01946E-10
 2.00000E+00    1.05928E-10
 2.17537E+00    1.29723E-10
 2.17538E+00    1.29725E-10
 2.20697E+00    1.34019E-10
 2.25000E+00    1.39880E-10
 2.25878E+00    1.41070E-10
 2.29514E+00    1.46080E-10
 2.44312E+00    1.67330E-10
 2.47580E+00    1.72050E-10
 2.50000E+00    1.75550E-10
 2.53703E+00    1.80900E-10
 2.59881E+00    1.89830E-10
 2.63761E+00    1.95440E-10
 2.75000E+00    2.11690E-10
 2.76265E+00    2.13520E-10
 2.78414E+00    2.16620E-10
 2.78985E+00    2.17450E-10
 2.84008E+00    2.24710E-10
 2.88514E+00    2.31220E-10
 2.93085E+00    2.37830E-10
 2.94155E+00    2.39380E-10
 2.96950E+00    2.43420E-10
 3.00000E+00    3.32500E-10
 3.05179E+00    4.46400E-10
 3.05208E+00    4.47040E-10
 3.05490E+00    4.53130E-10
 3.05491E+00    4.53162E-10
 3.09860E+00    5.93210E-10
 3.11471E+00    7.08590E-10
 3.12755E+00    7.99570E-10
 3.13461E+00    8.49160E-10
 3.13462E+00    8.49230E-10
 3.17768E+00    1.14630E-09
 3.21434E+00    1.74890E-09
 3.21716E+00    4.59680E-05
 3.21864E+00    4.63868E-05
 3.23237E+00    5.04905E-05
 3.23601E+00    5.15374E-05
 3.23602E+00    5.15403E-05
 3.24020E+00    5.27505E-05
 3.25457E+00    5.71978E-05
 3.27076E+00    6.26304E-05
 3.27312E+00    6.34809E-05
 3.50000E+00    2.73028E-04
 4.00000E+00    3.16855E-03
 4.50000E+00    1.79106E-02
 5.00000E+00    6.67027E-02
 5.50000E+00    1.83595E-01
 6.00000E+00    4.02396E-01
 6.50000E+00    7.12031E-01
 7.00000E+00    1.14243E+00
 7.50000E+00    1.67393E+00
 8.00000E+00    2.31485E+00
 8.50000E+00    3.10064E+00
 9.00000E+00    4.08671E+00
 9.50000E+00    5.33272E+00
 1.00000E+01    6.88774E+00
 1.05000E+01    8.78875E+00
 1.10000E+01    1.10379E+01
 1.15000E+01    1.36606E+01
 1.20000E+01    1.66369E+01
 1.25000E+01    1.99997E+01
 1.30000E+01    2.37233E+01
 1.35000E+01    2.78017E+01
 1.40000E+01    3.22192E+01
 1.45000E+01    3.69430E+01
 1.50000E+01    4.19870E+01
 1.55000E+01    4.72321E+01
 1.60000E+01    5.27121E+01
 1.65000E+01    5.82625E+01
 1.70000E+01    6.39073E+01
 1.75000E+01    6.94704E+01
 1.80000E+01    7.50220E+01
 1.85000E+01    8.05785E+01
 1.90000E+01    8.62469E+01
 1.95000E+01    9.18405E+01
 2.00000E+01    9.75496E+01
