# n + Dy162 : (n,n'27)  
# jendl4.0   N.Iwamoto,S.Chiba                 EVAL-Nov09
# uncertainties: n
# # energies =    56
#   E(MeV)       xs(mb) 
 1.64460E+00    0.00000E+00
 1.64740E+00    4.85400E-01
 1.64812E+00    5.46063E-01
 1.67665E+00    2.00513E+00
 1.67948E+00    2.13024E+00
 1.68092E+00    2.18983E+00
 1.69384E+00    2.74870E+00
 1.70000E+00    3.00755E+00
 1.70188E+00    3.08606E+00
 1.73909E+00    4.63564E+00
 1.74983E+00    5.06915E+00
 1.75659E+00    5.30969E+00
 1.76279E+00    5.54383E+00
 1.76575E+00    5.65637E+00
 1.77761E+00    6.10257E+00
 1.80000E+00    6.84144E+00
 1.90000E+00    9.87038E+00
 2.00000E+00    1.21195E+01
 2.25000E+00    1.57371E+01
 2.50000E+00    1.56069E+01
 2.75000E+00    1.45703E+01
 3.00000E+00    1.22731E+01
 3.50000E+00    7.79706E+00
 4.00000E+00    4.63042E+00
 4.50000E+00    2.69930E+00
 5.00000E+00    1.61427E+00
 5.50000E+00    1.02894E+00
 6.00000E+00    7.16116E-01
 6.50000E+00    5.48495E-01
 7.00000E+00    4.54719E-01
 7.50000E+00    3.97815E-01
 8.00000E+00    3.59572E-01
 8.50000E+00    3.31062E-01
 9.00000E+00    3.07951E-01
 9.50000E+00    2.88150E-01
 1.00000E+01    2.70650E-01
 1.05000E+01    2.55017E-01
 1.10000E+01    2.40574E-01
 1.15000E+01    2.27562E-01
 1.20000E+01    2.15519E-01
 1.25000E+01    2.04562E-01
 1.30000E+01    1.94313E-01
 1.35000E+01    1.84915E-01
 1.40000E+01    1.76120E-01
 1.45000E+01    1.68012E-01
 1.50000E+01    1.60423E-01
 1.55000E+01    1.52836E-01
 1.60000E+01    1.46380E-01
 1.65000E+01    1.40651E-01
 1.70000E+01    1.34634E-01
 1.75000E+01    1.28850E-01
 1.80000E+01    1.23554E-01
 1.85000E+01    1.19029E-01
 1.90000E+01    1.14842E-01
 1.95000E+01    1.10321E-01
 2.00000E+01    1.06065E-01
