# n + Dy162 : (n,n'07)  
# jendl4.0   N.Iwamoto,S.Chiba                 EVAL-Nov09
# uncertainties: n
# # energies =    82
#   E(MeV)       xs(mb) 
 1.06760E+00    0.00000E+00
 1.10000E+00    6.71648E+00
 1.15538E+00    1.87392E+01
 1.19013E+00    2.62329E+01
 1.20000E+00    2.82596E+01
 1.21763E+00    3.18312E+01
 1.28372E+00    4.29846E+01
 1.30000E+00    4.58657E+01
 1.30509E+00    4.67800E+01
 1.33271E+00    5.06339E+01
 1.36639E+00    5.63280E+01
 1.38365E+00    5.78773E+01
 1.39917E+00    5.99213E+01
 1.40000E+00    6.00288E+01
 1.40898E+00    6.12492E+01
 1.46252E+00    6.88883E+01
 1.49492E+00    7.24534E+01
 1.49967E+00    7.30102E+01
 1.50000E+00    7.30489E+01
 1.52789E+00    7.61873E+01
 1.53966E+00    7.74983E+01
 1.54523E+00    7.81136E+01
 1.58070E+00    8.13923E+01
 1.58410E+00    8.12761E+01
 1.58544E+00    8.12608E+01
 1.60000E+00    8.19200E+01
 1.64460E+00    8.48096E+01
 1.64740E+00    8.49540E+01
 1.64812E+00    8.49809E+01
 1.67665E+00    8.65978E+01
 1.67948E+00    8.67424E+01
 1.68092E+00    8.66665E+01
 1.69384E+00    8.70465E+01
 1.70000E+00    8.72949E+01
 1.70188E+00    8.73733E+01
 1.73909E+00    8.86294E+01
 1.74983E+00    8.86000E+01
 1.75659E+00    8.83924E+01
 1.76279E+00    8.83034E+01
 1.76575E+00    8.83108E+01
 1.77761E+00    8.83206E+01
 1.80000E+00    8.79380E+01
 1.90000E+00    8.66298E+01
 2.00000E+00    8.27477E+01
 2.25000E+00    7.00606E+01
 2.50000E+00    5.14371E+01
 2.75000E+00    3.89613E+01
 3.00000E+00    2.80226E+01
 3.50000E+00    1.47352E+01
 4.00000E+00    7.66293E+00
 4.50000E+00    4.00756E+00
 5.00000E+00    2.16440E+00
 5.50000E+00    1.25426E+00
 6.00000E+00    8.05718E-01
 6.50000E+00    5.81960E-01
 7.00000E+00    4.64417E-01
 7.50000E+00    3.97069E-01
 8.00000E+00    3.53997E-01
 8.50000E+00    3.23083E-01
 9.00000E+00    2.98654E-01
 9.50000E+00    2.78088E-01
 1.00000E+01    2.60134E-01
 1.05000E+01    2.44232E-01
 1.10000E+01    2.29675E-01
 1.15000E+01    2.16640E-01
 1.20000E+01    2.04617E-01
 1.25000E+01    1.93753E-01
 1.30000E+01    1.83627E-01
 1.35000E+01    1.74390E-01
 1.40000E+01    1.65772E-01
 1.45000E+01    1.57863E-01
 1.50000E+01    1.50480E-01
 1.55000E+01    1.43177E-01
 1.60000E+01    1.36943E-01
 1.65000E+01    1.31351E-01
 1.70000E+01    1.25587E-01
 1.75000E+01    1.20092E-01
 1.80000E+01    1.14986E-01
 1.85000E+01    1.10613E-01
 1.90000E+01    1.06621E-01
 1.95000E+01    1.02369E-01
 2.00000E+01    9.83080E-02
