# n + Dy162 : (n,n'04)  
# jendl4.0   N.Iwamoto,S.Chiba                 EVAL-Nov09
# uncertainties: n
# # energies =    87
#   E(MeV)       xs(mb) 
 8.93693E-01    0.00000E+00
 9.00000E-01    5.81799E+01
 9.27019E-01    1.29693E+02
 9.68938E-01    2.02881E+02
 1.00000E+00    2.39664E+02
 1.06760E+00    3.03775E+02
 1.10000E+00    3.28124E+02
 1.15538E+00    3.60081E+02
 1.19013E+00    3.67952E+02
 1.20000E+00    3.70628E+02
 1.21763E+00    3.74604E+02
 1.28372E+00    3.82608E+02
 1.30000E+00    3.77663E+02
 1.30509E+00    3.77168E+02
 1.33271E+00    3.74520E+02
 1.36639E+00    3.72974E+02
 1.38365E+00    3.70927E+02
 1.39917E+00    3.69578E+02
 1.40000E+00    3.69483E+02
 1.40898E+00    3.68465E+02
 1.46252E+00    3.60430E+02
 1.49492E+00    3.51250E+02
 1.49967E+00    3.50229E+02
 1.50000E+00    3.50160E+02
 1.52789E+00    3.44499E+02
 1.53966E+00    3.42327E+02
 1.54523E+00    3.41348E+02
 1.58070E+00    3.35431E+02
 1.58410E+00    3.34475E+02
 1.58544E+00    3.34182E+02
 1.60000E+00    3.31311E+02
 1.64460E+00    3.22817E+02
 1.64740E+00    3.22297E+02
 1.64812E+00    3.21571E+02
 1.67665E+00    3.13789E+02
 1.67948E+00    3.12751E+02
 1.68092E+00    3.12260E+02
 1.69384E+00    3.08904E+02
 1.70000E+00    3.07264E+02
 1.70188E+00    3.06777E+02
 1.73909E+00    2.95150E+02
 1.74983E+00    2.90496E+02
 1.75659E+00    2.87894E+02
 1.76279E+00    2.84669E+02
 1.76575E+00    2.83491E+02
 1.77761E+00    2.79278E+02
 1.80000E+00    2.71525E+02
 1.90000E+00    2.38658E+02
 2.00000E+00    2.06166E+02
 2.25000E+00    1.45831E+02
 2.50000E+00    9.36821E+01
 2.75000E+00    6.41714E+01
 3.00000E+00    4.15839E+01
 3.50000E+00    1.88364E+01
 4.00000E+00    8.72224E+00
 4.50000E+00    4.14337E+00
 5.00000E+00    2.05517E+00
 5.50000E+00    1.10356E+00
 6.00000E+00    6.65149E-01
 6.50000E+00    4.59250E-01
 7.00000E+00    3.57031E-01
 7.50000E+00    3.01305E-01
 8.00000E+00    2.66990E-01
 8.50000E+00    2.42873E-01
 9.00000E+00    2.23921E-01
 9.50000E+00    2.07901E-01
 1.00000E+01    1.93787E-01
 1.05000E+01    1.81140E-01
 1.10000E+01    1.69435E-01
 1.15000E+01    1.58804E-01
 1.20000E+01    1.48886E-01
 1.25000E+01    1.39792E-01
 1.30000E+01    1.31223E-01
 1.35000E+01    1.23290E-01
 1.40000E+01    1.15807E-01
 1.45000E+01    1.08837E-01
 1.50000E+01    1.02254E-01
 1.55000E+01    1.05435E-01
 1.60000E+01    9.95555E-02
 1.65000E+01    8.63926E-02
 1.70000E+01    8.78791E-02
 1.75000E+01    8.96022E-02
 1.80000E+01    8.58891E-02
 1.85000E+01    7.79937E-02
 1.90000E+01    6.96895E-02
 1.95000E+01    7.27907E-02
 2.00000E+01    7.42528E-02
