# n + Ag107 : (n,xt)    
# jendl.ad   N.Iwamoto                         EVAL-Apr14
# 
# # energies =    90
#   E(MeV)        xs(mb) 
 9.40036E-02    0.00000E+00
 1.00000E-01    0.00000E+00
 1.05000E-01    0.00000E+00
 1.10000E-01    0.00000E+00
 1.20000E-01    0.00000E+00
 1.26775E-01    0.00000E+00
 1.30000E-01    0.00000E+00
 1.40000E-01    0.00000E+00
 1.50000E-01    0.00000E+00
 1.60000E-01    0.00000E+00
 1.70000E-01    0.00000E+00
 1.80000E-01    0.00000E+00
 1.90000E-01    0.00000E+00
 2.00000E-01    0.00000E+00
 2.25000E-01    0.00000E+00
 2.50000E-01    0.00000E+00
 2.75000E-01    0.00000E+00
 3.00000E-01    0.00000E+00
 3.27875E-01    0.00000E+00
 4.00000E-01    0.00000E+00
 4.27142E-01    0.00000E+00
 5.00000E-01    0.00000E+00
 6.00000E-01    0.00000E+00
 7.00000E-01    0.00000E+00
 7.80606E-01    0.00000E+00
 7.94012E-01    0.00000E+00
 8.00000E-01    0.00000E+00
 9.00000E-01    0.00000E+00
 9.30760E-01    0.00000E+00
 9.58661E-01    0.00000E+00
 9.82483E-01    0.00000E+00
 1.00000E+00    0.00000E+00
 1.00035E+00    0.00000E+00
 1.07121E+00    0.00000E+00
 1.10000E+00    0.00000E+00
 1.15277E+00    0.00000E+00
 1.15278E+00    0.00000E+00
 1.15384E+00    0.00000E+00
 1.15772E+00    0.00000E+00
 1.20000E+00    0.00000E+00
 1.23353E+00    0.00000E+00
 1.23455E+00    0.00000E+00
 1.27077E+00    0.00000E+00
 1.30000E+00    0.00000E+00
 1.33831E+00    0.00000E+00
 1.40000E+00    0.00000E+00
 1.50000E+00    0.00000E+00
 1.60000E+00    0.00000E+00
 1.70000E+00    0.00000E+00
 1.80000E+00    0.00000E+00
 1.90000E+00    0.00000E+00
 2.00000E+00    0.00000E+00
 2.25000E+00    0.00000E+00
 2.50000E+00    0.00000E+00
 2.75000E+00    0.00000E+00
 3.00000E+00    0.00000E+00
 3.50000E+00    0.00000E+00
 4.00000E+00    0.00000E+00
 4.50000E+00    0.00000E+00
 5.00000E+00    0.00000E+00
 5.50000E+00    0.00000E+00
 6.00000E+00    0.00000E+00
 6.50000E+00    0.00000E+00
 7.00000E+00    1.13380E-19
 7.50000E+00    1.17970E-16
 8.00000E+00    8.21530E-15
 8.50000E+00    2.09750E-13
 9.00000E+00    1.13460E-10
 9.50000E+00    6.98500E-09
 1.00000E+01    1.24110E-07
 1.05000E+01    1.04168E-06
 1.10000E+01    5.41477E-06
 1.15000E+01    2.23903E-05
 1.20000E+01    9.04159E-05
 1.25000E+01    3.67318E-04
 1.30000E+01    1.35874E-03
 1.35000E+01    4.28518E-03
 1.40000E+01    1.13623E-02
 1.45000E+01    2.53189E-02
 1.50000E+01    4.98655E-02
 1.55000E+01    8.82976E-02
 1.60000E+01    1.39316E-01
 1.65000E+01    2.06243E-01
 1.70000E+01    2.88859E-01
 1.75000E+01    3.81894E-01
 1.80000E+01    4.87738E-01
 1.85000E+01    6.04842E-01
 1.90000E+01    7.31627E-01
 1.95000E+01    8.61203E-01
 2.00000E+01    1.00259E+00
