# n + Os186 : (n,xp)    
# jendl.ad   N.Iwamoto                         EVAL-Apr14
# 
# # energies =   100
#   E(MeV)        xs(mb) 
 1.05000E-01    0.00000E+00
 1.10000E-01    0.00000E+00
 1.20000E-01    0.00000E+00
 1.30000E-01    0.00000E+00
 1.37903E-01    0.00000E+00
 1.40000E-01    0.00000E+00
 1.50000E-01    0.00000E+00
 1.60000E-01    0.00000E+00
 1.70000E-01    0.00000E+00
 1.80000E-01    0.00000E+00
 1.90000E-01    0.00000E+00
 2.00000E-01    0.00000E+00
 2.25000E-01    0.00000E+00
 2.50000E-01    0.00000E+00
 2.75000E-01    0.00000E+00
 3.00000E-01    1.25250E-20
 4.00000E-01    1.21412E-19
 4.36442E-01    1.61088E-19
 5.00000E-01    2.30360E-19
 6.00000E-01    3.39343E-19
 7.00000E-01    4.48327E-19
 7.71641E-01    5.26404E-19
 8.00000E-01    5.57309E-19
 8.73653E-01    6.37575E-19
 9.00000E-01    6.66287E-19
 9.15410E-01    6.83081E-19
 1.00000E+00    7.75265E-19
 1.06676E+00    8.48019E-19
 1.07629E+00    8.58405E-19
 1.10000E+00    8.84244E-19
 1.20000E+00    9.93222E-19
 1.21499E+00    1.00956E-18
 1.21500E+00    1.00957E-18
 1.28253E+00    1.08316E-18
 1.30000E+00    1.10220E-18
 1.35926E+00    8.84430E-18
 1.40000E+00    3.21280E-17
 1.42865E+00    7.56800E-17
 1.46078E+00    1.91420E-16
 1.46390E+00    2.08200E-16
 1.46884E+00    2.36230E-16
 1.48810E+00    3.96370E-16
 1.49938E+00    5.33200E-16
 1.50000E+00    5.41980E-16
 1.56829E+00    3.07600E-15
 1.57952E+00    4.03980E-15
 1.60000E+00    6.41390E-15
 1.63200E+00    1.33290E-14
 1.63737E+00    1.50370E-14
 1.64971E+00    1.97890E-14
 1.66255E+00    2.60950E-14
 1.70000E+00    5.66140E-14
 1.71385E+00    7.52580E-14
 1.76030E+00    1.90430E-13
 1.76402E+00    2.04760E-13
 1.78151E+00    2.83370E-13
 1.78428E+00    2.98510E-13
 1.78543E+00    3.05070E-13
 1.80000E+00    3.96610E-13
 1.82245E+00    5.97430E-13
 1.90000E+00    2.33550E-12
 2.00000E+00    1.16980E-11
 2.25000E+00    3.36610E-10
 2.50000E+00    5.29740E-09
 2.75000E+00    4.78150E-08
 3.00000E+00    3.08180E-07
 3.50000E+00    5.40768E-06
 4.00000E+00    4.33652E-05
 4.50000E+00    2.02496E-04
 5.00000E+00    6.43532E-04
 5.50000E+00    1.55377E-03
 6.00000E+00    3.11850E-03
 6.50000E+00    5.64488E-03
 7.00000E+00    9.99661E-03
 7.50000E+00    1.82049E-02
 8.00000E+00    3.41271E-02
 8.50000E+00    6.41759E-02
 9.00000E+00    1.18040E-01
 9.50000E+00    2.08954E-01
 1.00000E+01    3.53624E-01
 1.05000E+01    5.71365E-01
 1.10000E+01    8.82756E-01
 1.15000E+01    1.30796E+00
 1.20000E+01    1.86515E+00
 1.25000E+01    2.56947E+00
 1.30000E+01    3.43251E+00
 1.35000E+01    4.46235E+00
 1.40000E+01    5.66383E+00
 1.45000E+01    7.03897E+00
 1.50000E+01    8.58722E+00
 1.55000E+01    1.03059E+01
 1.60000E+01    1.21900E+01
 1.65000E+01    1.42329E+01
 1.70000E+01    1.64281E+01
 1.75000E+01    1.87669E+01
 1.80000E+01    2.12413E+01
 1.85000E+01    2.38439E+01
 1.90000E+01    2.65676E+01
 1.95000E+01    2.94072E+01
 2.00000E+01    3.23579E+01
