# n + Xe130 : (n,xn)    
# jendl4.0   S.Kunieda, A.Ichihara, K.Shibata+ EVAL-FEB22
# 
# # energies =    78
#   E(MeV)        xs(mb) 
 5.40248E-01    0.00000E+00
 5.50000E-01    1.63300E+02
 6.00000E-01    4.10200E+02
 6.50000E-01    5.67500E+02
 7.00000E-01    6.82000E+02
 7.50000E-01    7.72200E+02
 8.00000E-01    8.47400E+02
 8.50000E-01    9.12600E+02
 9.00000E-01    9.70300E+02
 9.50000E-01    1.02200E+03
 1.00000E+00    1.06900E+03
 1.13086E+00    1.10630E+03
 1.20000E+00    1.33410E+03
 1.21396E+00    1.34581E+03
 1.40000E+00    1.57025E+03
 1.60000E+00    1.71800E+03
 1.60265E+00    1.71756E+03
 1.64521E+00    1.72650E+03
 1.80000E+00    1.87443E+03
 1.80747E+00    1.87530E+03
 1.82222E+00    1.88157E+03
 1.95919E+00    1.97092E+03
 2.00000E+00    1.99781E+03
 2.03275E+00    1.99319E+03
 2.07559E+00    1.99734E+03
 2.09813E+00    2.00125E+03
 2.11971E+00    2.00953E+03
 2.16691E+00    2.03981E+03
 2.18850E+00    2.07787E+03
 2.20000E+00    2.10150E+03
 2.24078E+00    2.08833E+03
 2.26040E+00    2.08495E+03
 2.31393E+00    2.09399E+03
 2.32571E+00    2.10285E+03
 2.32794E+00    2.10588E+03
 2.36418E+00    2.15722E+03
 2.38042E+00    2.18057E+03
 2.39364E+00    2.20194E+03
 2.40000E+00    2.21222E+03
 2.40475E+00    2.21431E+03
 2.44602E+00    2.23834E+03
 2.46099E+00    2.24884E+03
 2.51349E+00    2.28675E+03
 2.52166E+00    2.29575E+03
 2.55307E+00    2.34191E+03
 2.56421E+00    2.36287E+03
 2.57429E+00    2.38644E+03
 2.60000E+00    2.45028E+03
 2.80000E+00    2.49360E+03
 3.00000E+00    2.52221E+03
 3.25000E+00    2.54574E+03
 3.50000E+00    2.56596E+03
 3.75000E+00    2.57823E+03
 4.00000E+00    2.58584E+03
 4.25000E+00    2.58467E+03
 4.50000E+00    2.57575E+03
 4.75000E+00    2.55880E+03
 5.00000E+00    2.53626E+03
 5.50000E+00    2.47992E+03
 6.00000E+00    2.42120E+03
 6.50000E+00    2.37038E+03
 7.00000E+00    2.33091E+03
 7.50000E+00    2.30340E+03
 8.00000E+00    2.28498E+03
 8.50000E+00    2.27291E+03
 9.00000E+00    2.26339E+03
 9.50000E+00    2.26302E+03
 1.00000E+01    2.49092E+03
 1.10000E+01    3.23593E+03
 1.20000E+01    3.66293E+03
 1.30000E+01    3.84944E+03
 1.40000E+01    3.92245E+03
 1.50000E+01    3.93846E+03
 1.60000E+01    3.92866E+03
 1.70000E+01    3.90960E+03
 1.80000E+01    3.92861E+03
 1.90000E+01    4.05586E+03
 2.00000E+01    4.26358E+03
