# n + Xe130 : (n,xa)    
# jendl4.0   S.Kunieda, A.Ichihara, K.Shibata+ EVAL-FEB22
# 
# # energies =    78
#   E(MeV)        xs(mb) 
 5.40248E-01    2.59189E-08
 5.50000E-01    2.54800E-08
 6.00000E-01    2.18500E-08
 6.50000E-01    2.55700E-08
 7.00000E-01    3.16500E-08
 7.50000E-01    4.02800E-08
 8.00000E-01    5.16600E-08
 8.50000E-01    6.69200E-08
 9.00000E-01    8.66100E-08
 9.50000E-01    1.12800E-07
 1.00000E+00    1.46400E-07
 1.13086E+00    2.98594E-07
 1.20000E+00    3.79000E-07
 1.21396E+00    4.14291E-07
 1.40000E+00    8.84500E-07
 1.60000E+00    2.20400E-06
 1.60265E+00    2.24111E-06
 1.64521E+00    2.83756E-06
 1.80000E+00    5.00700E-06
 1.80747E+00    5.22736E-06
 1.82222E+00    5.66282E-06
 1.95919E+00    9.70535E-06
 2.00000E+00    1.09100E-05
 2.03275E+00    1.28145E-05
 2.07559E+00    1.53057E-05
 2.09813E+00    1.66160E-05
 2.11971E+00    1.78712E-05
 2.16691E+00    2.06156E-05
 2.18850E+00    2.18714E-05
 2.20000E+00    2.25400E-05
 2.24078E+00    2.63636E-05
 2.26040E+00    2.82021E-05
 2.31393E+00    3.32208E-05
 2.32571E+00    3.43252E-05
 2.32794E+00    3.45341E-05
 2.36418E+00    3.79315E-05
 2.38042E+00    3.94545E-05
 2.39364E+00    4.06940E-05
 2.40000E+00    4.12900E-05
 2.40475E+00    4.20034E-05
 2.44602E+00    4.82039E-05
 2.46099E+00    5.04541E-05
 2.51349E+00    5.83413E-05
 2.52166E+00    5.95693E-05
 2.55307E+00    6.42889E-05
 2.56421E+00    6.59621E-05
 2.57429E+00    6.74763E-05
 2.60000E+00    7.13400E-05
 2.80000E+00    1.13200E-04
 3.00000E+00    1.78000E-04
 3.25000E+00    3.20100E-04
 3.50000E+00    5.07000E-04
 3.75000E+00    8.49000E-04
 4.00000E+00    1.26100E-03
 4.25000E+00    1.88300E-03
 4.50000E+00    2.74000E-03
 4.75000E+00    3.80800E-03
 5.00000E+00    5.25900E-03
 5.50000E+00    9.08800E-03
 6.00000E+00    1.44200E-02
 6.50000E+00    2.13700E-02
 7.00000E+00    2.99801E-02
 7.50000E+00    4.02907E-02
 8.00000E+00    5.22478E-02
 8.50000E+00    6.63485E-02
 9.00000E+00    8.36977E-02
 9.50000E+00    1.06225E-01
 1.00000E+01    1.35022E-01
 1.10000E+01    2.24053E-01
 1.20000E+01    3.94410E-01
 1.30000E+01    6.98650E-01
 1.40000E+01    1.18870E+00
 1.50000E+01    1.90400E+00
 1.60000E+01    2.86240E+00
 1.70000E+01    4.07200E+00
 1.80000E+01    5.53800E+00
 1.90000E+01    7.26700E+00
 2.00000E+01    9.26800E+00
