# n + Sr 86 : (n,g)     
# jendl4.0   K.Shibata, A.Ichihara, S.Kunieda  EVAL-AUG09
# uncertainties: n
# # energies =    69
#   E(MeV)       xs(mb) 
 1.00000E-10    7.26101E+03
 5.00000E-09    1.97710E+03
 1.00000E-08    1.49739E+03
 1.50000E-08    1.25811E+03
 2.00000E-08    1.10692E+03
 2.50000E-08    1.00006E+03
 3.00000E-08    9.19304E+02
 3.50000E-08    8.45233E+02
 4.20000E-08    7.73129E+02
 5.00000E-08    7.13156E+02
 5.80000E-08    6.62847E+02
 6.70000E-08    6.11724E+02
 8.00000E-08    5.53585E+02
 1.00000E-07    4.81678E+02
 1.40000E-07    4.15684E+02
 1.80000E-07    3.71239E+02
 2.20000E-07    3.41922E+02
 2.50000E-07    3.21935E+02
 2.80000E-07    3.07587E+02
 3.00000E-07    2.97506E+02
 3.20000E-07    2.86294E+02
 3.50000E-07    2.70826E+02
 4.00000E-07    2.47868E+02
 5.00000E-07    2.21779E+02
 6.25000E-07    1.98534E+02
 7.80000E-07    1.83841E+02
 8.50000E-07    1.76922E+02
 9.10000E-07    1.72093E+02
 9.50000E-07    1.69297E+02
 9.72000E-07    1.67321E+02
 9.96000E-07    1.65327E+02
 1.02000E-06    1.63367E+02
 1.04500E-06    1.61406E+02
 1.07100E-06    1.59478E+02
 1.09700E-06    1.57614E+02
 1.12300E-06    1.55796E+02
 1.15000E-06    1.50262E+02
 1.30000E-06    1.40722E+02
 1.50000E-06    1.25140E+02
 2.10000E-06    1.09217E+02
 2.60000E-06    9.77349E+01
 3.30000E-06    8.79399E+01
 4.00000E-06    6.80161E+01
 9.87700E-06    4.88501E+01
 1.59680E-05    3.88928E+01
 2.77000E-05    3.11757E+01
 4.80520E-05    2.64291E+01
 7.55014E-05    2.39877E+01
 1.48728E-04    3.28952E+01
 3.67262E-04    3.93790E+03
 9.06898E-04    2.09662E+02
 1.42510E-03    1.51258E+00
 2.23945E-03    5.52152E+02
 3.51910E-03    1.80286E+02
 5.53000E-03    1.06165E+02
 9.11800E-03    1.44855E+02
 1.50300E-02    7.95752E+01
 2.47800E-02    5.59096E+01
 4.08500E-02    4.55193E+01
 6.73400E-02    3.61228E+01
 1.11000E-01    3.16132E+01
 1.83000E-01    2.79666E+01
 3.02000E-01    2.75798E+01
 5.00000E-01    3.01691E+01
 8.21000E-01    3.21758E+01
 1.35300E+00    2.16909E+01
 2.23100E+00    1.48127E+01
 3.67900E+00    7.46747E+00
 6.06500E+00    2.12931E+00
