# n + Xe126 : (n,xd)    
# jendl4.0   S.Kunieda, A.Ichihara, K.Shibata+ EVAL-FEB22
# 
# # energies =    62
#   E(MeV)        xs(mb) 
 3.91748E-01    0.00000E+00
 4.00000E-01    0.00000E+00
 4.50000E-01    0.00000E+00
 5.00000E-01    0.00000E+00
 5.50000E-01    0.00000E+00
 6.00000E-01    0.00000E+00
 6.50000E-01    0.00000E+00
 7.00000E-01    0.00000E+00
 7.50000E-01    0.00000E+00
 8.00000E-01    0.00000E+00
 8.50000E-01    0.00000E+00
 8.86928E-01    0.00000E+00
 9.00000E-01    0.00000E+00
 9.49516E-01    0.00000E+00
 9.50000E-01    0.00000E+00
 1.00000E+00    0.00000E+00
 1.20000E+00    0.00000E+00
 1.32439E+00    0.00000E+00
 1.32822E+00    0.00000E+00
 1.40000E+00    0.00000E+00
 1.50041E+00    0.00000E+00
 1.60000E+00    0.00000E+00
 1.64814E+00    0.00000E+00
 1.69200E+00    0.00000E+00
 1.77462E+00    0.00000E+00
 1.80000E+00    0.00000E+00
 1.88212E+00    0.00000E+00
 1.89220E+00    0.00000E+00
 2.00000E+00    0.00000E+00
 2.20000E+00    0.00000E+00
 2.40000E+00    0.00000E+00
 2.60000E+00    0.00000E+00
 2.80000E+00    0.00000E+00
 3.00000E+00    0.00000E+00
 3.25000E+00    0.00000E+00
 3.50000E+00    0.00000E+00
 3.75000E+00    0.00000E+00
 4.00000E+00    0.00000E+00
 4.25000E+00    0.00000E+00
 4.50000E+00    0.00000E+00
 4.75000E+00    0.00000E+00
 5.00000E+00    0.00000E+00
 5.50000E+00    0.00000E+00
 6.00000E+00    9.44800E-20
 6.50000E+00    8.38900E-15
 7.00000E+00    7.79400E-12
 7.50000E+00    1.41400E-09
 8.00000E+00    1.07500E-07
 8.50000E+00    1.72200E-06
 9.00000E+00    1.18600E-05
 9.50000E+00    4.92000E-05
 1.00000E+01    1.49600E-04
 1.10000E+01    1.58000E-03
 1.20000E+01    2.22900E-02
 1.30000E+01    1.67400E-01
 1.40000E+01    6.74200E-01
 1.50000E+01    1.73700E+00
 1.60000E+01    3.33200E+00
 1.70000E+01    5.31900E+00
 1.80000E+01    7.56100E+00
 1.90000E+01    9.94518E+00
 2.00000E+01    1.23944E+01
