# n + Ag  0 : (n,xp)
# jendl.ad   N.Iwamoto                         EVAL-Apr14
#
# # energies =    91
#   E(MeV)          xs(mb) 
 8.88494E-02    0.00000E+00
 9.00000E-02    0.00000E+00
 1.00000E-01    0.00000E+00
 1.05000E-01    0.00000E+00
 1.10000E-01    0.00000E+00
 1.20000E-01    0.00000E+00
 1.30000E-01    0.00000E+00
 1.33969E-01    0.00000E+00
 1.40000E-01    0.00000E+00
 1.50000E-01    0.00000E+00
 1.60000E-01    0.00000E+00
 1.70000E-01    0.00000E+00
 1.80000E-01    0.00000E+00
 1.90000E-01    0.00000E+00
 2.00000E-01    0.00000E+00
 2.25000E-01    0.00000E+00
 2.50000E-01    0.00000E+00
 2.75000E-01    7.68150E-09
 3.00000E-01    1.21013E-08
 3.14264E-01    1.60572E-08
 4.00000E-01    5.75118E-08
 4.19056E-01    7.61644E-08
 4.23890E-01    8.08961E-08
 5.00000E-01    2.05598E-07
 6.00000E-01    7.05184E-07
 7.00000E-01    2.28957E-06
 7.08411E-01    2.63261E-06
 7.12539E-01    2.80097E-06
 7.13548E-01    2.84212E-06
 7.31059E-01    3.55630E-06
 7.42100E-01    4.00660E-06
 7.80664E-01    5.58073E-06
 7.96308E-01    6.55480E-06
 8.00000E-01    6.75830E-06
 8.70751E-01    1.43552E-05
 8.77523E-01    1.50823E-05
 8.78058E-01    1.51398E-05
 8.98243E-01    1.73071E-05
 9.00000E-01    1.74958E-05
 9.19438E-01    2.11270E-05
 9.20548E-01    2.13344E-05
 9.39421E-01    2.51968E-05
 1.00000E+00    4.08399E-05
 1.10000E+00    8.76164E-05
 1.20000E+00    1.77056E-04
 1.30000E+00    3.30979E-04
 1.40000E+00    5.91960E-04
 1.50000E+00    1.04359E-03
 1.60000E+00    1.76590E-03
 1.70000E+00    2.89780E-03
 1.80000E+00    4.60817E-03
 1.90000E+00    7.11974E-03
 2.00000E+00    1.06671E-02
 2.25000E+00    2.57142E-02
 2.50000E+00    5.45416E-02
 2.75000E+00    1.07143E-01
 3.00000E+00    1.73521E-01
 3.50000E+00    4.02095E-01
 4.00000E+00    7.38712E-01
 4.50000E+00    1.13935E+00
 5.00000E+00    1.52827E+00
 5.50000E+00    1.83293E+00
 6.00000E+00    2.01951E+00
 6.50000E+00    2.12008E+00
 7.00000E+00    2.20237E+00
 7.50000E+00    2.33317E+00
 8.00000E+00    2.56741E+00
 8.50000E+00    2.94769E+00
 9.00000E+00    3.55954E+00
 9.50000E+00    4.51193E+00
 1.00000E+01    5.81890E+00
 1.05000E+01    7.06976E+00
 1.10000E+01    8.45678E+00
 1.15000E+01    1.01083E+01
 1.20000E+01    1.20429E+01
 1.25000E+01    1.42716E+01
 1.30000E+01    1.67992E+01
 1.35000E+01    1.96132E+01
 1.40000E+01    2.27075E+01
 1.45000E+01    2.60481E+01
 1.50000E+01    2.96324E+01
 1.55000E+01    3.33769E+01
 1.60000E+01    3.73403E+01
 1.65000E+01    4.14165E+01
 1.70000E+01    4.55866E+01
 1.75000E+01    4.99347E+01
 1.80000E+01    5.43749E+01
 1.85000E+01    5.88548E+01
 1.90000E+01    6.35854E+01
 1.95000E+01    6.83724E+01
 2.00000E+01    7.34270E+01
