# n + Ag  0 : (n,xa)
# jendl.ad   N.Iwamoto                         EVAL-Apr14
#
# # energies =    91
#   E(MeV)          xs(mb) 
 8.88494E-02    8.36923E-11
 9.00000E-02    8.38396E-11
 1.00000E-01    1.62316E-07
 1.05000E-01    1.63453E-07
 1.10000E-01    1.64591E-07
 1.20000E-01    1.67501E-07
 1.30000E-01    1.71132E-07
 1.33969E-01    1.72874E-07
 1.40000E-01    1.75521E-07
 1.50000E-01    1.80572E-07
 1.60000E-01    1.86308E-07
 1.70000E-01    1.92685E-07
 1.80000E-01    1.99668E-07
 1.90000E-01    2.08008E-07
 2.00000E-01    2.16667E-07
 2.25000E-01    2.40268E-07
 2.50000E-01    2.68522E-07
 2.75000E-01    3.01797E-07
 3.00000E-01    3.42709E-07
 3.14264E-01    3.69057E-07
 4.00000E-01    4.64941E-07
 4.19056E-01    4.97702E-07
 4.23890E-01    5.06010E-07
 5.00000E-01    6.40208E-07
 6.00000E-01    9.71512E-07
 7.00000E-01    1.56527E-06
 7.08411E-01    1.64294E-06
 7.12539E-01    1.68101E-06
 7.13548E-01    1.69032E-06
 7.31059E-01    1.85178E-06
 7.42100E-01    1.95356E-06
 7.80664E-01    2.31150E-06
 7.96308E-01    2.52431E-06
 8.00000E-01    2.55056E-06
 8.70751E-01    3.56469E-06
 8.77523E-01    3.66142E-06
 8.78058E-01    3.66906E-06
 8.98243E-01    3.95739E-06
 9.00000E-01    3.98248E-06
 9.19438E-01    4.34500E-06
 9.20548E-01    4.36570E-06
 9.39421E-01    4.72463E-06
 1.00000E+00    6.05793E-06
 1.10000E+00    9.00187E-06
 1.20000E+00    1.32422E-05
 1.30000E+00    1.88409E-05
 1.40000E+00    2.67424E-05
 1.50000E+00    3.86574E-05
 1.60000E+00    5.51522E-05
 1.70000E+00    7.81496E-05
 1.80000E+00    1.09577E-04
 1.90000E+00    1.52040E-04
 2.00000E+00    2.59508E-04
 2.25000E+00    4.70705E-04
 2.50000E+00    9.18061E-04
 2.75000E+00    1.65534E-03
 3.00000E+00    2.78920E-03
 3.50000E+00    7.21298E-03
 4.00000E+00    1.66918E-02
 4.50000E+00    3.46202E-02
 5.00000E+00    6.54399E-02
 5.50000E+00    1.10636E-01
 6.00000E+00    1.80979E-01
 6.50000E+00    2.82062E-01
 7.00000E+00    4.25943E-01
 7.50000E+00    6.33246E-01
 8.00000E+00    9.32755E-01
 8.50000E+00    1.36559E+00
 9.00000E+00    1.98246E+00
 9.50000E+00    2.83609E+00
 1.00000E+01    3.97886E+00
 1.05000E+01    5.45127E+00
 1.10000E+01    7.27225E+00
 1.15000E+01    9.44609E+00
 1.20000E+01    1.19507E+01
 1.25000E+01    1.47427E+01
 1.30000E+01    1.77595E+01
 1.35000E+01    2.09222E+01
 1.40000E+01    2.41121E+01
 1.45000E+01    2.72712E+01
 1.50000E+01    3.02726E+01
 1.55000E+01    3.29882E+01
 1.60000E+01    3.54172E+01
 1.65000E+01    3.72761E+01
 1.70000E+01    3.89469E+01
 1.75000E+01    4.00285E+01
 1.80000E+01    4.09339E+01
 1.85000E+01    4.17248E+01
 1.90000E+01    4.23902E+01
 1.95000E+01    4.27328E+01
 2.00000E+01    4.33714E+01
