# n + Sn126 : (n,xp)    
# jendl4.0   N.Iwamoto                         EVAL-Dec09
# 
# # energies =    92
#   E(MeV)        xs(mb) 
 1.05000E-01    0.00000E+00
 1.10000E-01    0.00000E+00
 1.20000E-01    0.00000E+00
 1.30000E-01    0.00000E+00
 1.40000E-01    0.00000E+00
 1.50000E-01    0.00000E+00
 1.60000E-01    0.00000E+00
 1.70000E-01    0.00000E+00
 1.80000E-01    0.00000E+00
 1.90000E-01    0.00000E+00
 2.00000E-01    0.00000E+00
 2.25000E-01    0.00000E+00
 2.50000E-01    0.00000E+00
 2.75000E-01    0.00000E+00
 3.00000E-01    0.00000E+00
 4.00000E-01    0.00000E+00
 5.00000E-01    0.00000E+00
 6.00000E-01    0.00000E+00
 7.00000E-01    0.00000E+00
 8.00000E-01    0.00000E+00
 9.00000E-01    0.00000E+00
 1.00000E+00    0.00000E+00
 1.10000E+00    0.00000E+00
 1.15029E+00    0.00000E+00
 1.20000E+00    0.00000E+00
 1.30000E+00    0.00000E+00
 1.40000E+00    0.00000E+00
 1.50000E+00    0.00000E+00
 1.60000E+00    0.00000E+00
 1.70000E+00    0.00000E+00
 1.80000E+00    0.00000E+00
 1.90000E+00    0.00000E+00
 2.00000E+00    0.00000E+00
 2.06616E+00    0.00000E+00
 2.12770E+00    0.00000E+00
 2.14715E+00    0.00000E+00
 2.17886E+00    0.00000E+00
 2.21180E+00    0.00000E+00
 2.23677E+00    0.00000E+00
 2.25000E+00    0.00000E+00
 2.27460E+00    0.00000E+00
 2.29509E+00    0.00000E+00
 2.31641E+00    0.00000E+00
 2.38945E+00    0.00000E+00
 2.49173E+00    0.00000E+00
 2.49736E+00    0.00000E+00
 2.50000E+00    0.00000E+00
 2.50817E+00    0.00000E+00
 2.57043E+00    0.00000E+00
 2.58504E+00    0.00000E+00
 2.65211E+00    0.00000E+00
 2.65776E+00    0.00000E+00
 2.68431E+00    0.00000E+00
 2.73379E+00    0.00000E+00
 2.74179E+00    0.00000E+00
 2.75000E+00    0.00000E+00
 2.76454E+00    0.00000E+00
 3.00000E+00    0.00000E+00
 3.50000E+00    0.00000E+00
 4.00000E+00    0.00000E+00
 4.50000E+00    0.00000E+00
 5.00000E+00    0.00000E+00
 5.50000E+00    0.00000E+00
 6.00000E+00    0.00000E+00
 6.50000E+00    0.00000E+00
 7.00000E+00    0.00000E+00
 7.50000E+00    1.61541E-13
 8.00000E+00    5.31236E-12
 8.50000E+00    4.54950E-11
 9.00000E+00    8.97270E-11
 9.50000E+00    2.32950E-08
 1.00000E+01    5.37150E-07
 1.05000E+01    5.84030E-06
 1.10000E+01    4.59565E-05
 1.15000E+01    2.80933E-04
 1.20000E+01    1.32555E-03
 1.25000E+01    4.94931E-03
 1.30000E+01    1.51330E-02
 1.35000E+01    3.90694E-02
 1.40000E+01    8.76688E-02
 1.45000E+01    1.74569E-01
 1.50000E+01    3.15354E-01
 1.55000E+01    5.24780E-01
 1.60000E+01    8.18143E-01
 1.65000E+01    1.20632E+00
 1.70000E+01    1.70198E+00
 1.75000E+01    2.31028E+00
 1.80000E+01    3.04173E+00
 1.85000E+01    3.89620E+00
 1.90000E+01    4.88281E+00
 1.95000E+01    5.99722E+00
 2.00000E+01    7.24795E+00
