# n + Sn126 : (n,xa)    
# jendl4.0   N.Iwamoto                         EVAL-Dec09
# 
# # energies =    92
#   E(MeV)        xs(mb) 
 1.05000E-01    0.00000E+00
 1.10000E-01    0.00000E+00
 1.20000E-01    0.00000E+00
 1.30000E-01    0.00000E+00
 1.40000E-01    0.00000E+00
 1.50000E-01    0.00000E+00
 1.60000E-01    0.00000E+00
 1.70000E-01    0.00000E+00
 1.80000E-01    0.00000E+00
 1.90000E-01    0.00000E+00
 2.00000E-01    0.00000E+00
 2.25000E-01    0.00000E+00
 2.50000E-01    0.00000E+00
 2.75000E-01    0.00000E+00
 3.00000E-01    0.00000E+00
 4.00000E-01    0.00000E+00
 5.00000E-01    0.00000E+00
 6.00000E-01    0.00000E+00
 7.00000E-01    0.00000E+00
 8.00000E-01    0.00000E+00
 9.00000E-01    0.00000E+00
 1.00000E+00    0.00000E+00
 1.10000E+00    0.00000E+00
 1.15029E+00    0.00000E+00
 1.20000E+00    0.00000E+00
 1.30000E+00    0.00000E+00
 1.40000E+00    0.00000E+00
 1.50000E+00    0.00000E+00
 1.60000E+00    0.00000E+00
 1.70000E+00    0.00000E+00
 1.80000E+00    0.00000E+00
 1.90000E+00    0.00000E+00
 2.00000E+00    0.00000E+00
 2.06616E+00    0.00000E+00
 2.12770E+00    0.00000E+00
 2.14715E+00    0.00000E+00
 2.17886E+00    0.00000E+00
 2.21180E+00    0.00000E+00
 2.23677E+00    0.00000E+00
 2.25000E+00    0.00000E+00
 2.27460E+00    0.00000E+00
 2.29509E+00    0.00000E+00
 2.31641E+00    0.00000E+00
 2.38945E+00    0.00000E+00
 2.49173E+00    0.00000E+00
 2.49736E+00    0.00000E+00
 2.50000E+00    0.00000E+00
 2.50817E+00    0.00000E+00
 2.57043E+00    0.00000E+00
 2.58504E+00    0.00000E+00
 2.65211E+00    0.00000E+00
 2.65776E+00    0.00000E+00
 2.68431E+00    0.00000E+00
 2.73379E+00    0.00000E+00
 2.74179E+00    0.00000E+00
 2.75000E+00    0.00000E+00
 2.76454E+00    0.00000E+00
 3.00000E+00    0.00000E+00
 3.50000E+00    1.49687E-24
 4.00000E+00    1.74113E-23
 4.50000E+00    3.39859E-23
 5.00000E+00    5.05604E-23
 5.50000E+00    6.71350E-23
 6.00000E+00    9.87950E-20
 6.50000E+00    9.57380E-17
 7.00000E+00    1.85190E-14
 7.50000E+00    1.17630E-12
 8.00000E+00    3.32790E-11
 8.50000E+00    5.17290E-10
 9.00000E+00    5.08860E-09
 9.50000E+00    3.51110E-08
 1.00000E+01    1.83730E-07
 1.05000E+01    7.78110E-07
 1.10000E+01    2.79641E-06
 1.15000E+01    8.91458E-06
 1.20000E+01    2.52746E-05
 1.25000E+01    6.82792E-05
 1.30000E+01    1.73089E-04
 1.35000E+01    4.12068E-04
 1.40000E+01    9.33034E-04
 1.45000E+01    1.99960E-03
 1.50000E+01    4.05421E-03
 1.55000E+01    7.75253E-03
 1.60000E+01    1.39716E-02
 1.65000E+01    2.37714E-02
 1.70000E+01    3.85020E-02
 1.75000E+01    5.99645E-02
 1.80000E+01    9.06416E-02
 1.85000E+01    1.33525E-01
 1.90000E+01    1.91877E-01
 1.95000E+01    2.68653E-01
 2.00000E+01    3.66471E-01
