# n + Ag109 : (n,n'01)  
# jendl4.0   N.Iwamoto,K.Shibata               EVAL-Dec09
# uncertainties: n
# # energies =    90
#   E(MeV)       xs(mb) 
 8.88494E-02    0.00000E+00
 9.00000E-02    1.88872E-01
 1.00000E-01    2.24361E+00
 1.10000E-01    4.66800E+00
 1.20000E-01    7.16452E+00
 1.30000E-01    9.72415E+00
 1.33969E-01    1.07885E+01
 1.40000E-01    1.23222E+01
 1.50000E-01    1.48786E+01
 1.60000E-01    1.75487E+01
 1.70000E-01    2.03293E+01
 1.80000E-01    2.32280E+01
 1.90000E-01    2.62673E+01
 2.00000E-01    2.93988E+01
 2.25000E-01    3.78009E+01
 2.50000E-01    4.67507E+01
 2.75000E-01    5.64306E+01
 3.00000E-01    6.65738E+01
 3.14264E-01    7.25746E+01
 4.00000E-01    9.57661E+01
 4.19056E-01    1.01705E+02
 4.23890E-01    1.01168E+02
 5.00000E-01    1.06751E+02
 6.00000E-01    1.20540E+02
 7.00000E-01    1.36620E+02
 7.08411E-01    1.37947E+02
 7.12539E-01    1.37787E+02
 7.13548E-01    1.37781E+02
 7.31059E-01    1.36993E+02
 7.42100E-01    1.36206E+02
 7.80664E-01    1.31338E+02
 7.96308E-01    1.29642E+02
 8.00000E-01    1.29018E+02
 8.70751E-01    1.22885E+02
 8.77523E-01    1.22060E+02
 8.78058E-01    1.21954E+02
 8.98243E-01    1.18647E+02
 9.00000E-01    1.18320E+02
 9.19438E-01    1.15538E+02
 9.20548E-01    1.15315E+02
 9.39421E-01    1.12252E+02
 1.00000E+00    1.05244E+02
 1.10000E+00    9.77964E+01
 1.20000E+00    9.16066E+01
 1.30000E+00    8.57486E+01
 1.40000E+00    8.00187E+01
 1.50000E+00    7.50455E+01
 1.60000E+00    6.92079E+01
 1.70000E+00    6.32568E+01
 1.80000E+00    5.79848E+01
 1.90000E+00    5.32690E+01
 2.00000E+00    4.88501E+01
 2.25000E+00    3.80238E+01
 2.50000E+00    2.84977E+01
 2.75000E+00    2.12232E+01
 3.00000E+00    1.55080E+01
 3.50000E+00    8.22912E+00
 4.00000E+00    4.30722E+00
 4.50000E+00    2.23769E+00
 5.00000E+00    1.15950E+00
 5.50000E+00    6.03852E-01
 6.00000E+00    3.20831E-01
 6.50000E+00    1.78131E-01
 7.00000E+00    1.06773E-01
 7.50000E+00    7.10683E-02
 8.00000E+00    5.27050E-02
 8.50000E+00    4.27712E-02
 9.00000E+00    3.70196E-02
 9.50000E+00    3.34008E-02
 1.00000E+01    3.08890E-02
 1.05000E+01    2.89657E-02
 1.10000E+01    2.73831E-02
 1.15000E+01    2.60286E-02
 1.20000E+01    2.46913E-02
 1.25000E+01    2.34475E-02
 1.30000E+01    2.23486E-02
 1.35000E+01    2.13346E-02
 1.40000E+01    2.04042E-02
 1.45000E+01    1.95076E-02
 1.50000E+01    1.86828E-02
 1.55000E+01    1.78586E-02
 1.60000E+01    1.70962E-02
 1.65000E+01    1.63221E-02
 1.70000E+01    1.56172E-02
 1.75000E+01    1.49087E-02
 1.80000E+01    1.42602E-02
 1.85000E+01    1.36251E-02
 1.90000E+01    1.30419E-02
 1.95000E+01    1.24873E-02
 2.00000E+01    1.19791E-02
