# n + Ag109 : (n,d)     
# jendl4.0   N.Iwamoto,K.Shibata               EVAL-Dec09
# uncertainties: n
# # energies =    64
#   E(MeV)       xs(mb) 
 4.30225E+00    0.00000E+00
 4.74021E+00    2.56850E-14
 5.24201E+00    1.24380E-13
 5.36021E+00    1.55460E-13
 5.36478E+00    1.56710E-13
 5.50000E+00    1.94060E-13
 5.62864E+00    5.41760E-11
 5.64984E+00    6.31510E-11
 5.75678E+00    1.08600E-10
 5.85647E+00    1.50990E-10
 5.94250E+00    1.87580E-10
 6.00000E+00    2.12040E-10
 6.08981E+00    3.99570E-09
 6.27738E+00    1.18990E-08
 6.31054E+00    1.32960E-08
 6.33591E+00    1.43650E-08
 6.36786E+00    1.57110E-08
 6.42036E+00    1.79230E-08
 6.46308E+00    1.97230E-08
 6.50000E+00    2.12790E-08
 6.54080E+00    5.21290E-08
 6.60459E+00    1.00360E-07
 6.60588E+00    1.01340E-07
 6.64858E+00    1.33630E-07
 6.68613E+00    1.62020E-07
 6.71580E+00    1.84460E-07
 6.72196E+00    1.89110E-07
 6.72862E+00    1.94150E-07
 6.74265E+00    2.04760E-07
 6.74668E+00    2.07810E-07
 6.79109E+00    2.41390E-07
 6.80277E+00    2.50220E-07
 6.85669E+00    2.90990E-07
 6.86214E+00    2.95110E-07
 6.86598E+00    2.98010E-07
 6.87425E+00    3.04270E-07
 6.90413E+00    3.26860E-07
 7.00000E+00    3.99350E-07
 7.50000E+00    2.87708E-06
 8.00000E+00    1.19736E-05
 8.50000E+00    4.74154E-05
 9.00000E+00    2.76955E-04
 9.50000E+00    1.66461E-03
 1.00000E+01    7.76589E-03
 1.05000E+01    2.77222E-02
 1.10000E+01    7.86320E-02
 1.15000E+01    1.84197E-01
 1.20000E+01    3.68619E-01
 1.25000E+01    6.28933E-01
 1.30000E+01    1.00200E+00
 1.35000E+01    1.47362E+00
 1.40000E+01    2.03554E+00
 1.45000E+01    2.67291E+00
 1.50000E+01    3.37590E+00
 1.55000E+01    4.00732E+00
 1.60000E+01    4.83709E+00
 1.65000E+01    5.73825E+00
 1.70000E+01    6.56707E+00
 1.75000E+01    7.32150E+00
 1.80000E+01    8.11476E+00
 1.85000E+01    8.92377E+00
 1.90000E+01    9.75127E+00
 1.95000E+01    1.05593E+01
 2.00000E+01    1.11681E+01
