# n + Cd111 : (n,xa)    
# jendl.ad   kunieda                           EVAL-Mar14
# 
# # energies =    94
#   E(MeV)        xs(mb) 
 1.50000E-01    2.36208E-06
 2.00000E-01    2.39443E-06
 2.47622E-01    2.66116E-06
 3.00000E-01    2.68631E-06
 3.45247E-01    2.87203E-06
 3.99818E-01    2.78631E-06
 4.00000E-01    2.78642E-06
 4.20510E-01    2.81854E-06
 5.00000E-01    3.23864E-06
 6.00000E-01    4.36339E-06
 6.25820E-01    4.76912E-06
 6.86669E-01    5.93882E-06
 7.00000E-01    6.19935E-06
 7.06366E-01    6.33093E-06
 7.11341E-01    6.43609E-06
 7.42694E-01    7.14873E-06
 7.59657E-01    7.46739E-06
 7.61766E-01    7.49842E-06
 8.00000E-01    7.75273E-06
 8.38820E-01    8.20167E-06
 8.61706E-01    8.63181E-06
 8.61707E-01    8.63183E-06
 8.63382E-01    8.66730E-06
 8.72665E-01    8.83254E-06
 8.74482E-01    8.85822E-06
 9.00000E-01    9.06468E-06
 9.76703E-01    1.03216E-05
 9.95502E-01    1.08423E-05
 1.00000E+00    1.09789E-05
 1.02601E+00    1.18571E-05
 1.02928E+00    1.19689E-05
 1.05628E+00    1.27646E-05
 1.06711E+00    1.38239E-05
 1.08806E+00    1.45925E-05
 1.12571E+00    1.60584E-05
 1.12858E+00    1.61746E-05
 1.14028E+00    1.66599E-05
 1.16147E+00    1.74972E-05
 1.19651E+00    1.91014E-05
 1.20000E+00    1.92454E-05
 1.20078E+00    1.92819E-05
 1.26802E+00    2.29562E-05
 1.28627E+00    2.42653E-05
 1.30061E+00    2.53552E-05
 1.31039E+00    2.61413E-05
 1.33363E+00    2.81500E-05
 1.33800E+00    2.85399E-05
 1.33869E+00    2.85881E-05
 1.34210E+00    2.88708E-05
 1.35190E+00    2.96589E-05
 1.35286E+00    2.97392E-05
 1.35353E+00    2.97823E-05
 1.40000E+00    3.38304E-05
 1.60000E+00    6.43733E-05
 1.80000E+00    1.26843E-04
 2.00000E+00    2.48193E-04
 2.20000E+00    4.74679E-04
 2.40000E+00    8.71272E-04
 2.70000E+00    1.92094E-03
 3.00000E+00    3.51887E-03
 3.50000E+00    7.20241E-03
 4.00000E+00    1.18255E-02
 4.50000E+00    1.85114E-02
 5.00000E+00    2.95393E-02
 5.50000E+00    4.50324E-02
 6.00000E+00    6.41222E-02
 6.50000E+00    8.39779E-02
 7.00000E+00    1.09191E-01
 7.50000E+00    1.41358E-01
 8.00000E+00    1.82082E-01
 8.50000E+00    2.38813E-01
 9.00000E+00    3.35209E-01
 9.50000E+00    4.67136E-01
 1.00000E+01    6.61294E-01
 1.05000E+01    9.03566E-01
 1.10000E+01    1.23325E+00
 1.15000E+01    1.63189E+00
 1.20000E+01    2.08045E+00
 1.25000E+01    2.61265E+00
 1.30000E+01    3.20214E+00
 1.35000E+01    3.82230E+00
 1.40000E+01    4.50050E+00
 1.45000E+01    5.21589E+00
 1.50000E+01    5.95412E+00
 1.55000E+01    6.70201E+00
 1.60000E+01    7.46077E+00
 1.65000E+01    8.24253E+00
 1.70000E+01    8.99274E+00
 1.75000E+01    9.76858E+00
 1.80000E+01    1.05081E+01
 1.85000E+01    1.12236E+01
 1.90000E+01    1.19645E+01
 1.95000E+01    1.26501E+01
 2.00000E+01    1.33509E+01
