# n + Cd111 : (n,n')o   
# jendl.ad   kunieda                           EVAL-Mar14
# uncertainties: n
# # energies =    88
#   E(MeV)       xs(mb) 
 3.99818E-01    0.00000E+00
 4.00000E-01    6.50606E-05
 4.20510E-01    4.16558E-02
 5.00000E-01    2.30409E-01
 6.00000E-01    8.67026E-01
 6.25820E-01    1.14828E+00
 6.86669E-01    1.86796E+00
 7.00000E-01    5.33203E+00
 7.06366E-01    6.82267E+00
 7.11341E-01    7.93255E+00
 7.42694E-01    3.30788E+01
 7.59657E-01    4.53132E+01
 7.61766E-01    4.64407E+01
 8.00000E-01    6.56799E+01
 8.38820E-01    7.93052E+01
 8.61706E-01    9.38069E+01
 8.63382E-01    9.45824E+01
 8.72665E-01    9.94150E+01
 8.74482E-01    1.00265E+02
 9.00000E-01    1.10704E+02
 9.76703E-01    1.33018E+02
 9.95502E-01    1.37367E+02
 1.00000E+00    1.38317E+02
 1.02601E+00    1.43347E+02
 1.02928E+00    1.43771E+02
 1.05628E+00    1.47724E+02
 1.06711E+00    1.48531E+02
 1.08806E+00    1.49154E+02
 1.12571E+00    1.50608E+02
 1.12858E+00    1.50618E+02
 1.14028E+00    1.50387E+02
 1.16147E+00    1.50402E+02
 1.19651E+00    1.61593E+02
 1.20000E+00    1.62691E+02
 1.20078E+00    1.62939E+02
 1.26802E+00    1.80465E+02
 1.28627E+00    1.84213E+02
 1.30061E+00    1.86157E+02
 1.31039E+00    1.88801E+02
 1.33363E+00    1.94315E+02
 1.33800E+00    1.95041E+02
 1.33869E+00    1.95170E+02
 1.34210E+00    1.96596E+02
 1.35190E+00    1.99930E+02
 1.35286E+00    2.00261E+02
 1.35353E+00    2.00482E+02
 1.40000E+00    2.13061E+02
 1.60000E+00    2.40992E+02
 1.80000E+00    2.57512E+02
 2.00000E+00    2.72295E+02
 2.20000E+00    2.86158E+02
 2.40000E+00    2.99447E+02
 2.70000E+00    3.19258E+02
 3.00000E+00    3.45103E+02
 3.50000E+00    3.87296E+02
 4.00000E+00    4.37855E+02
 4.50000E+00    4.93124E+02
 5.00000E+00    5.45854E+02
 5.50000E+00    5.89634E+02
 6.00000E+00    6.23075E+02
 6.50000E+00    6.47976E+02
 7.00000E+00    6.64826E+02
 7.50000E+00    6.73508E+02
 8.00000E+00    6.58980E+02
 8.50000E+00    6.07059E+02
 9.00000E+00    5.49599E+02
 9.50000E+00    4.86693E+02
 1.00000E+01    4.22664E+02
 1.05000E+01    3.58447E+02
 1.10000E+01    2.97243E+02
 1.15000E+01    2.43301E+02
 1.20000E+01    2.02445E+02
 1.25000E+01    1.80797E+02
 1.30000E+01    1.54109E+02
 1.35000E+01    1.39875E+02
 1.40000E+01    1.27814E+02
 1.45000E+01    1.17913E+02
 1.50000E+01    1.06223E+02
 1.55000E+01    9.94086E+01
 1.60000E+01    9.67401E+01
 1.65000E+01    9.03144E+01
 1.70000E+01    8.45764E+01
 1.75000E+01    7.96426E+01
 1.80000E+01    7.52157E+01
 1.85000E+01    7.39169E+01
 1.90000E+01    7.08364E+01
 1.95000E+01    6.73634E+01
 2.00000E+01    6.57358E+01
