# n + Nd142 : (n,xp)    
# jendl4.0   N.Iwamoto,A.Zukeran               EVAL-Dec09
# 
# # energies =   100
#   E(MeV)        xs(mb) 
 1.05000E-01    0.00000E+00
 1.10000E-01    0.00000E+00
 1.20000E-01    0.00000E+00
 1.30000E-01    0.00000E+00
 1.40000E-01    0.00000E+00
 1.50000E-01    0.00000E+00
 1.60000E-01    0.00000E+00
 1.70000E-01    0.00000E+00
 1.80000E-01    0.00000E+00
 1.90000E-01    0.00000E+00
 2.00000E-01    0.00000E+00
 2.25000E-01    0.00000E+00
 2.50000E-01    0.00000E+00
 2.75000E-01    0.00000E+00
 3.00000E-01    0.00000E+00
 4.00000E-01    0.00000E+00
 5.00000E-01    0.00000E+00
 6.00000E-01    0.00000E+00
 7.00000E-01    0.00000E+00
 8.00000E-01    0.00000E+00
 9.00000E-01    0.00000E+00
 1.00000E+00    0.00000E+00
 1.10000E+00    0.00000E+00
 1.20000E+00    0.00000E+00
 1.30000E+00    0.00000E+00
 1.40000E+00    4.04191E-15
 1.50000E+00    1.41450E-13
 1.58698E+00    3.45541E-13
 1.60000E+00    3.83850E-13
 1.70000E+00    6.84708E-13
 1.80000E+00    9.85567E-13
 1.90000E+00    1.28643E-12
 2.00000E+00    1.58728E-12
 2.09875E+00    1.88438E-12
 2.11572E+00    1.93544E-12
 2.22501E+00    2.26425E-12
 2.23325E+00    2.28904E-12
 2.25000E+00    2.33943E-12
 2.25995E+00    2.36937E-12
 2.35663E+00    2.66024E-12
 2.40129E+00    2.79460E-12
 2.45449E+00    4.17420E-12
 2.50000E+00    8.75310E-12
 2.53176E+00    1.71570E-11
 2.53288E+00    1.74710E-11
 2.54698E+00    2.32710E-11
 2.56539E+00    3.37740E-11
 2.60145E+00    6.87830E-11
 2.60393E+00    7.15900E-11
 2.67488E+00    2.76120E-10
 2.75000E+00    1.07300E-09
 2.75672E+00    1.20480E-09
 2.79573E+00    2.26920E-09
 2.86609E+00    6.92130E-09
 2.89342E+00    1.02750E-08
 2.90683E+00    1.25650E-08
 2.97902E+00    3.38570E-08
 2.97903E+00    3.38621E-08
 2.99705E+00    4.30000E-08
 3.00000E+00    4.43430E-08
 3.00430E+00    4.81990E-08
 3.03136E+00    6.76600E-08
 3.06684E+00    1.03360E-07
 3.10296E+00    1.63280E-07
 3.10778E+00    1.71510E-07
 3.15029E+00    2.72400E-07
 3.50000E+00    8.26448E-06
 4.00000E+00    2.79721E-04
 4.50000E+00    3.38072E-03
 5.00000E+00    2.02792E-02
 5.50000E+00    7.49203E-02
 6.00000E+00    1.97128E-01
 6.50000E+00    4.06018E-01
 7.00000E+00    6.96628E-01
 7.50000E+00    1.04291E+00
 8.00000E+00    1.41611E+00
 8.50000E+00    1.80023E+00
 9.00000E+00    2.19703E+00
 9.50000E+00    2.62474E+00
 1.00000E+01    3.11757E+00
 1.05000E+01    3.73075E+00
 1.10000E+01    4.53596E+00
 1.15000E+01    5.59078E+00
 1.20000E+01    6.86254E+00
 1.25000E+01    8.39159E+00
 1.30000E+01    1.01597E+01
 1.35000E+01    1.22062E+01
 1.40000E+01    1.45122E+01
 1.45000E+01    1.71077E+01
 1.50000E+01    1.99662E+01
 1.55000E+01    2.30744E+01
 1.60000E+01    2.64269E+01
 1.65000E+01    3.00323E+01
 1.70000E+01    3.38813E+01
 1.75000E+01    3.78688E+01
 1.80000E+01    4.21467E+01
 1.85000E+01    4.65202E+01
 1.90000E+01    5.11608E+01
 1.95000E+01    5.58634E+01
 2.00000E+01    6.07768E+01
