# n + Cd114 : (n,xa)    
# jendl4.0   S.Kunieda, A.Ichihara, K.Shibata+ EVAL-FEB22
# 
# # energies =    77
#   E(MeV)        xs(mb) 
 5.63401E-01    4.63733E-16
 6.00000E-01    4.20400E-16
 6.50000E-01    6.08600E-16
 7.00000E-01    9.78300E-16
 7.50000E-01    1.61600E-15
 8.00000E-01    2.69500E-15
 8.50000E-01    4.50100E-15
 9.00000E-01    7.51500E-15
 9.50000E-01    1.25100E-14
 1.00000E+00    2.08100E-14
 1.14458E+00    1.14344E-13
 1.20000E+00    1.50200E-13
 1.22042E+00    2.10478E-13
 1.29511E+00    4.30911E-13
 1.31717E+00    4.96033E-13
 1.37642E+00    6.70910E-13
 1.40000E+00    7.40500E-13
 1.60000E+00    3.55800E-12
 1.74759E+00    1.37358E-11
 1.79980E+00    1.73361E-11
 1.80000E+00    1.73500E-11
 1.85826E+00    3.25678E-11
 1.87617E+00    3.72451E-11
 1.88077E+00    3.84469E-11
 1.94919E+00    5.63182E-11
 1.97543E+00    6.31723E-11
 2.00000E+00    6.95900E-11
 2.00793E+00    7.67665E-11
 2.06617E+00    1.29507E-10
 2.17133E+00    2.24737E-10
 2.20000E+00    2.50700E-10
 2.22408E+00    3.27883E-10
 2.23851E+00    3.74121E-10
 2.31929E+00    6.33018E-10
 2.33762E+00    6.91769E-10
 2.40000E+00    8.91700E-10
 2.40588E+00    9.45434E-10
 2.40844E+00    9.68863E-10
 2.41268E+00    1.00760E-09
 2.42145E+00    1.08783E-09
 2.43386E+00    1.20127E-09
 2.45923E+00    1.43311E-09
 2.47775E+00    1.60244E-09
 2.48255E+00    1.64634E-09
 2.48703E+00    1.68728E-09
 2.49712E+00    1.77951E-09
 2.60000E+00    2.72000E-09
 2.80000E+00    7.59400E-09
 3.00000E+00    2.12900E-08
 3.25000E+00    7.49000E-08
 3.50000E+00    2.27600E-07
 3.75000E+00    6.79800E-07
 4.00000E+00    1.80500E-06
 4.25000E+00    4.34600E-06
 4.50000E+00    9.46800E-06
 4.75000E+00    1.94600E-05
 5.00000E+00    3.61300E-05
 5.50000E+00    1.06800E-04
 6.00000E+00    2.57200E-04
 6.50000E+00    5.26300E-04
 7.00000E+00    9.49600E-04
 7.50000E+00    1.55800E-03
 8.00000E+00    2.40100E-03
 8.50000E+00    3.62502E-03
 9.00000E+00    5.48536E-03
 9.50000E+00    8.21807E-03
 1.00000E+01    1.29766E-02
 1.10000E+01    3.44676E-02
 1.20000E+01    9.42661E-02
 1.30000E+01    2.43128E-01
 1.40000E+01    5.57940E-01
 1.50000E+01    1.11873E+00
 1.60000E+01    1.97550E+00
 1.70000E+01    3.12900E+00
 1.80000E+01    4.53500E+00
 1.90000E+01    6.13000E+00
 2.00000E+01    7.84400E+00
