# n + Dy164 : (n,n'21)  
# jeff3.3    A.J. Koning and D. Rochman        EVAL-DEC15
# uncertainties: n
# # energies =    72
#   E(MeV)       xs(mb) 
 1.59759E+00    0.00000E+00
 1.60000E+00    4.28014E+00
 1.61759E+00    6.02524E+00
 1.66538E+00    1.07665E+01
 1.67530E+00    1.17507E+01
 1.68500E+00    1.27130E+01
 1.69678E+00    1.38817E+01
 1.72676E+00    1.68560E+01
 1.73592E+00    1.77648E+01
 1.74879E+00    1.90417E+01
 1.75664E+00    1.98204E+01
 1.80000E+00    2.41222E+01
 2.00000E+00    2.68655E+01
 2.20000E+00    2.46722E+01
 2.40000E+00    2.03188E+01
 2.60000E+00    1.58357E+01
 2.80000E+00    1.20238E+01
 3.00000E+00    9.01915E+00
 3.20000E+00    6.94103E+00
 3.40000E+00    5.16359E+00
 3.60000E+00    3.84064E+00
 3.80000E+00    2.86137E+00
 4.00000E+00    2.13757E+00
 4.20000E+00    1.60285E+00
 4.40000E+00    1.20598E+00
 4.60000E+00    9.28560E-01
 4.80000E+00    7.04192E-01
 5.00000E+00    5.32217E-01
 5.20000E+00    4.02893E-01
 5.40000E+00    3.05356E-01
 5.60000E+00    2.31699E-01
 5.80000E+00    1.75397E-01
 6.00000E+00    1.33187E-01
 6.20000E+00    1.01366E-01
 6.40000E+00    7.72558E-02
 6.60000E+00    5.89893E-02
 6.80000E+00    4.52554E-02
 7.00000E+00    3.47841E-02
 7.20000E+00    2.68496E-02
 7.40000E+00    2.07772E-02
 7.60000E+00    1.61089E-02
 7.80000E+00    1.25388E-02
 8.00000E+00    9.76768E-03
 8.50000E+00    5.27486E-03
 9.00000E+00    2.87555E-03
 9.50000E+00    1.58284E-03
 1.00000E+01    8.80146E-04
 1.05000E+01    4.94518E-04
 1.10000E+01    2.80699E-04
 1.15000E+01    1.61013E-04
 1.20000E+01    9.32996E-05
 1.25000E+01    5.45690E-05
 1.30000E+01    3.22203E-05
 1.35000E+01    1.91822E-05
 1.40000E+01    1.15290E-05
 1.45000E+01    6.97836E-06
 1.50000E+01    4.25680E-06
 1.60000E+01    1.61892E-06
 1.70000E+01    6.31570E-07
 1.80000E+01    2.51000E-07
 1.90000E+01    1.02450E-07
 2.00000E+01    4.28440E-08
 2.10000E+01    1.82750E-08
 2.20000E+01    7.91810E-09
 2.30000E+01    3.50740E-09
 2.40000E+01    1.58050E-09
 2.50000E+01    7.26200E-10
 2.60000E+01    3.37810E-10
 2.70000E+01    1.58950E-10
 2.80000E+01    7.55600E-11
 2.90000E+01    3.65120E-11
 3.00000E+01    1.78520E-11
