# n + U 238 : (n,tot)   
# jendl.ad   O.Iwamoto,N.Otuka,S.Chiba,+       EVAL-NOV09
# uncertainties: n
# # energies =    69
#   E(MeV)       xs(mb) 
 1.00000E-10    1.86705E+04
 5.00000E-09    5.08836E+03
 1.00000E-08    3.85645E+03
 1.50000E-08    3.24275E+03
 2.00000E-08    2.85492E+03
 2.50000E-08    2.58118E+03
 3.00000E-08    2.37433E+03
 3.50000E-08    2.18527E+03
 4.20000E-08    2.00098E+03
 5.00000E-08    1.84778E+03
 5.80000E-08    1.71940E+03
 6.70000E-08    1.58966E+03
 8.00000E-08    1.44199E+03
 1.00000E-07    1.25983E+03
 1.40000E-07    1.09404E+03
 1.80000E-07    9.82956E+02
 2.20000E-07    9.10213E+02
 2.50000E-07    8.60981E+02
 2.80000E-07    8.25868E+02
 3.00000E-07    8.01305E+02
 3.20000E-07    7.74259E+02
 3.50000E-07    7.37262E+02
 4.00000E-07    6.82923E+02
 5.00000E-07    6.22748E+02
 6.25000E-07    5.71242E+02
 7.80000E-07    5.40520E+02
 8.50000E-07    5.26530E+02
 9.10000E-07    5.17038E+02
 9.50000E-07    5.11962E+02
 9.72000E-07    5.08251E+02
 9.96000E-07    5.04564E+02
 1.02000E-06    5.01156E+02
 1.04500E-06    4.97616E+02
 1.07100E-06    4.94136E+02
 1.09700E-06    4.91055E+02
 1.12300E-06    4.87943E+02
 1.15000E-06    4.79178E+02
 1.30000E-06    4.66125E+02
 1.50000E-06    4.54907E+02
 2.10000E-06    4.65309E+02
 2.60000E-06    5.13989E+02
 3.30000E-06    6.38034E+02
 4.00000E-06    1.42011E+05
 9.87700E-06    4.78590E+02
 1.59680E-05    1.20320E+05
 2.77000E-05    7.58869E+04
 4.80520E-05    2.49018E+04
 7.55014E-05    1.76492E+04
 1.48728E-04    7.87252E+03
 3.67262E-04    3.13567E+03
 9.06898E-04    2.46108E+03
 1.42510E-03    1.60757E+03
 2.23945E-03    1.34028E+03
 3.51910E-03    8.89817E+02
 5.53000E-03    7.88474E+02
 9.11800E-03    6.51502E+02
 1.50300E-02    5.21487E+02
 2.47800E-02    4.25737E+02
 4.08500E-02    3.12299E+02
 6.73400E-02    2.01358E+02
 1.11000E-01    1.48508E+02
 1.83000E-01    1.23971E+02
 3.02000E-01    1.10821E+02
 5.00000E-01    1.18420E+02
 8.21000E-01    1.43805E+02
 1.35300E+00    4.93959E+02
 2.23100E+00    5.59581E+02
 3.67900E+00    5.49272E+02
 6.06500E+00    1.72513E+03
