# n + Xe129 : (n,xn)    
# jendl.ad   kunieda                           EVAL-Mar14
# 
# # energies =    80
#   E(MeV)        xs(mb) 
 3.98877E-02    0.00000E+00
 4.00000E-02    5.07946E+01
 5.00000E-02    2.71673E+02
 6.00000E-02    3.39759E+02
 7.00000E-02    3.82860E+02
 8.00000E-02    4.13227E+02
 9.00000E-02    4.35778E+02
 1.00000E-01    4.53370E+02
 1.50000E-01    4.89747E+02
 2.00000E-01    5.26126E+02
 2.37988E-01    5.37129E+02
 2.76426E-01    5.45759E+02
 3.00000E-01    5.55241E+02
 3.20669E-01    5.62484E+02
 3.24228E-01    5.84801E+02
 4.00000E-01    7.46140E+02
 4.14716E-01    7.65168E+02
 4.45660E-01    8.42105E+02
 5.00000E-01    9.31490E+02
 5.22759E-01    9.58055E+02
 5.29370E-01    9.67242E+02
 5.77161E-01    1.02650E+03
 5.93138E-01    1.04647E+03
 6.00000E-01    1.06051E+03
 6.29336E-01    1.09890E+03
 6.70627E-01    1.14441E+03
 6.98382E-01    1.17135E+03
 7.00000E-01    1.17348E+03
 7.77144E-01    1.24034E+03
 8.00000E-01    1.25724E+03
 8.28593E-01    1.27734E+03
 8.29490E-01    1.27796E+03
 8.29752E-01    1.27871E+03
 8.74842E-01    1.31553E+03
 9.00000E-01    1.33404E+03
 9.11394E-01    1.34198E+03
 1.00000E+00    1.40622E+03
 1.20000E+00    1.52665E+03
 1.40000E+00    1.62770E+03
 1.60000E+00    1.70629E+03
 1.80000E+00    1.76617E+03
 2.00000E+00    1.81318E+03
 2.20000E+00    1.85357E+03
 2.40000E+00    1.89286E+03
 2.70000E+00    1.95846E+03
 3.00000E+00    2.03705E+03
 3.50000E+00    2.17953E+03
 4.00000E+00    2.28696E+03
 4.50000E+00    2.32742E+03
 5.00000E+00    2.31275E+03
 5.50000E+00    2.26843E+03
 6.00000E+00    2.21401E+03
 6.50000E+00    2.16410E+03
 7.00000E+00    2.13506E+03
 7.50000E+00    2.16598E+03
 8.00000E+00    2.35952E+03
 8.50000E+00    2.63164E+03
 9.00000E+00    2.92972E+03
 9.50000E+00    3.17459E+03
 1.00000E+01    3.37183E+03
 1.05000E+01    3.52211E+03
 1.10000E+01    3.62977E+03
 1.15000E+01    3.69790E+03
 1.20000E+01    3.73939E+03
 1.25000E+01    3.76973E+03
 1.30000E+01    3.78370E+03
 1.35000E+01    3.79166E+03
 1.40000E+01    3.78654E+03
 1.45000E+01    3.78028E+03
 1.50000E+01    3.77206E+03
 1.55000E+01    3.76254E+03
 1.60000E+01    3.75507E+03
 1.65000E+01    3.74867E+03
 1.70000E+01    3.74483E+03
 1.75000E+01    3.74660E+03
 1.80000E+01    3.74906E+03
 1.85000E+01    3.79504E+03
 1.90000E+01    3.89831E+03
 1.95000E+01    4.00759E+03
 2.00000E+01    4.12941E+03
