# n + Dy156 : (n,n'02)  
# jendl4.0   N.Iwamoto,S.Chiba                 EVAL-Nov09
# uncertainties: n
# # energies =    81
#   E(MeV)       xs(mb) 
 4.06805E-01    0.00000E+00
 5.00000E-01    9.71806E+00
 6.00000E-01    3.11174E+01
 6.79970E-01    5.56672E+01
 7.00000E-01    6.26813E+01
 7.75424E-01    9.08890E+01
 8.00000E-01    1.00660E+02
 8.34000E-01    1.14200E+02
 8.96261E-01    1.27698E+02
 9.00000E-01    1.25800E+02
 1.00000E+00    1.49277E+02
 1.02869E+00    1.56911E+02
 1.09532E+00    1.67728E+02
 1.10000E+00    1.68274E+02
 1.17603E+00    1.82275E+02
 1.20000E+00    1.85877E+02
 1.22347E+00    1.89390E+02
 1.30000E+00    2.00535E+02
 1.30157E+00    2.00761E+02
 1.34420E+00    2.04934E+02
 1.37721E+00    2.07957E+02
 1.39125E+00    2.07431E+02
 1.40000E+00    2.05232E+02
 1.41610E+00    2.04652E+02
 1.44658E+00    2.02606E+02
 1.45674E+00    2.02548E+02
 1.48565E+00    1.99413E+02
 1.50000E+00    1.97930E+02
 1.52474E+00    1.96796E+02
 1.53504E+00    1.94729E+02
 1.53615E+00    1.94630E+02
 1.60000E+00    1.92149E+02
 1.61974E+00    1.91649E+02
 1.63515E+00    1.90341E+02
 1.63795E+00    1.90182E+02
 1.68800E+00    1.87770E+02
 1.69077E+00    1.87526E+02
 1.70000E+00    1.87081E+02
 1.73618E+00    1.85933E+02
 1.73997E+00    1.85838E+02
 1.80000E+00    1.84665E+02
 1.90000E+00    1.81707E+02
 2.00000E+00    1.74975E+02
 2.25000E+00    1.51296E+02
 2.50000E+00    1.35926E+02
 2.75000E+00    1.17064E+02
 3.00000E+00    1.04778E+02
 3.50000E+00    8.54938E+01
 4.00000E+00    7.40887E+01
 4.50000E+00    6.72198E+01
 5.00000E+00    6.29353E+01
 5.50000E+00    6.00831E+01
 6.00000E+00    5.79310E+01
 6.50000E+00    5.60378E+01
 7.00000E+00    5.41861E+01
 7.50000E+00    5.22980E+01
 8.00000E+00    5.03670E+01
 8.50000E+00    4.84159E+01
 9.00000E+00    4.64772E+01
 9.50000E+00    4.45777E+01
 1.00000E+01    4.27382E+01
 1.05000E+01    4.10136E+01
 1.10000E+01    3.92891E+01
 1.15000E+01    3.77366E+01
 1.20000E+01    3.61842E+01
 1.25000E+01    3.48050E+01
 1.30000E+01    3.34257E+01
 1.35000E+01    3.22092E+01
 1.40000E+01    3.09927E+01
 1.45000E+01    2.99208E+01
 1.50000E+01    2.88490E+01
 1.55000E+01    2.79030E+01
 1.60000E+01    2.69570E+01
 1.65000E+01    2.61179E+01
 1.70000E+01    2.52788E+01
 1.75000E+01    2.45250E+01
 1.80000E+01    2.37713E+01
 1.85000E+01    2.30777E+01
 1.90000E+01    2.23840E+01
 1.95000E+01    2.17283E+01
 2.00000E+01    2.10725E+01
