# n + La139 : (n,xn)    
# jendl.ad   N.Iwamoto                         EVAL-Apr14
# 
# # energies =    97
#   E(MeV)        xs(mb) 
 1.05000E-01    0.00000E+00
 1.10000E-01    5.25118E-04
 1.20000E-01    5.50273E-04
 1.30000E-01    5.53859E-04
 1.40000E-01    5.55534E-04
 1.50000E-01    5.55156E-04
 1.60000E-01    5.53094E-04
 1.67062E-01    5.53501E-04
 1.70000E-01    6.39065E+01
 1.80000E-01    1.10946E+02
 1.90000E-01    1.39450E+02
 2.00000E-01    1.61113E+02
 2.25000E-01    1.99116E+02
 2.50000E-01    2.22955E+02
 2.75000E-01    2.46448E+02
 3.00000E-01    2.64799E+02
 4.00000E-01    3.08509E+02
 5.00000E-01    3.61047E+02
 6.00000E-01    3.96883E+02
 7.00000E-01    4.40244E+02
 8.00000E-01    4.87078E+02
 9.00000E-01    5.16095E+02
 1.00000E+00    5.39328E+02
 1.10000E+00    5.71028E+02
 1.20000E+00    5.96003E+02
 1.21778E+00    5.99426E+02
 1.22781E+00    6.03205E+02
 1.26596E+00    6.71340E+02
 1.30000E+00    7.20006E+02
 1.39133E+00    7.94501E+02
 1.40000E+00    8.30420E+02
 1.43031E+00    8.68150E+02
 1.43086E+00    8.72559E+02
 1.48713E+00    9.79839E+02
 1.50000E+00    1.01141E+03
 1.54887E+00    1.08180E+03
 1.54904E+00    1.08500E+03
 1.56971E+00    1.14259E+03
 1.58950E+00    1.18215E+03
 1.59127E+00    1.18705E+03
 1.60000E+00    1.21081E+03
 1.69552E+00    1.34324E+03
 1.70000E+00    1.35108E+03
 1.72858E+00    1.38431E+03
 1.77399E+00    1.43446E+03
 1.77907E+00    1.44111E+03
 1.79292E+00    1.45758E+03
 1.79293E+00    1.45759E+03
 1.80000E+00    1.46550E+03
 1.83322E+00    1.49787E+03
 1.85034E+00    1.51555E+03
 1.86968E+00    1.53345E+03
 1.90000E+00    1.56035E+03
 1.90664E+00    1.56572E+03
 1.90665E+00    1.56572E+03
 1.93469E+00    1.58908E+03
 1.95498E+00    1.60739E+03
 1.97715E+00    1.62724E+03
 2.00000E+00    1.64634E+03
 2.25000E+00    1.82079E+03
 2.50000E+00    1.97117E+03
 2.75000E+00    2.06996E+03
 3.00000E+00    2.15864E+03
 3.50000E+00    2.24416E+03
 4.00000E+00    2.26226E+03
 4.50000E+00    2.22896E+03
 5.00000E+00    2.17948E+03
 5.50000E+00    2.13142E+03
 6.00000E+00    2.09483E+03
 6.50000E+00    2.07343E+03
 7.00000E+00    2.06265E+03
 7.50000E+00    2.05795E+03
 8.00000E+00    2.05524E+03
 8.50000E+00    2.05166E+03
 9.00000E+00    2.05717E+03
 9.50000E+00    2.24348E+03
 1.00000E+01    2.52304E+03
 1.05000E+01    2.81363E+03
 1.10000E+01    3.04902E+03
 1.15000E+01    3.23465E+03
 1.20000E+01    3.36499E+03
 1.25000E+01    3.46878E+03
 1.30000E+01    3.54105E+03
 1.35000E+01    3.59958E+03
 1.40000E+01    3.64146E+03
 1.45000E+01    3.67475E+03
 1.50000E+01    3.69995E+03
 1.55000E+01    3.71830E+03
 1.60000E+01    3.73457E+03
 1.65000E+01    3.74567E+03
 1.70000E+01    3.75519E+03
 1.75000E+01    3.76895E+03
 1.80000E+01    3.80807E+03
 1.85000E+01    3.85921E+03
 1.90000E+01    3.95630E+03
 1.95000E+01    4.06330E+03
 2.00000E+01    4.17996E+03
