# n + Dy161 : (n,n'14)  
# jendl4.0   N.Iwamoto,S.Chiba                 EVAL-Nov09
# uncertainties: n
# # energies =    79
#   E(MeV)       xs(mb) 
 4.09541E-01    0.00000E+00
 4.20855E-01    3.73057E-02
 4.46179E-01    1.23886E-01
 4.54262E-01    1.51915E-01
 4.60096E-01    1.75989E-01
 4.88603E-01    2.94442E-01
 5.00000E-01    3.40845E-01
 5.11285E-01    3.97640E-01
 5.15209E-01    4.18175E-01
 5.24266E-01    4.67759E-01
 5.37548E-01    5.46033E-01
 5.53702E-01    6.45576E-01
 5.71502E-01    7.64467E-01
 5.90780E-01    9.04477E-01
 6.00000E-01    9.60883E-01
 6.11389E-01    1.04552E+00
 6.13653E-01    1.06205E+00
 6.32172E-01    1.20463E+00
 6.37136E-01    1.24407E+00
 6.46024E-01    1.31644E+00
 6.82575E-01    1.60335E+00
 6.92614E-01    1.69159E+00
 7.00000E-01    1.74501E+00
 7.00441E-01    1.74869E+00
 7.03522E-01    1.77484E+00
 7.21544E-01    1.92892E+00
 7.23104E-01    1.94208E+00
 7.35494E-01    2.05013E+00
 8.00000E-01    2.65979E+00
 9.00000E-01    3.58701E+00
 1.00000E+00    4.35548E+00
 1.10000E+00    4.97722E+00
 1.20000E+00    5.42765E+00
 1.30000E+00    5.77922E+00
 1.40000E+00    6.00008E+00
 1.50000E+00    6.09682E+00
 1.60000E+00    6.23909E+00
 1.70000E+00    6.29457E+00
 1.80000E+00    6.35525E+00
 1.90000E+00    6.42785E+00
 2.00000E+00    6.44619E+00
 2.25000E+00    6.43831E+00
 2.50000E+00    6.64701E+00
 2.75000E+00    6.52523E+00
 3.00000E+00    6.68073E+00
 3.50000E+00    6.40012E+00
 4.00000E+00    6.12642E+00
 4.50000E+00    5.95801E+00
 5.00000E+00    5.88324E+00
 5.50000E+00    5.84274E+00
 6.00000E+00    5.77920E+00
 6.50000E+00    5.66009E+00
 7.00000E+00    5.48048E+00
 7.50000E+00    5.25164E+00
 8.00000E+00    4.99108E+00
 8.50000E+00    4.71679E+00
 9.00000E+00    4.44490E+00
 9.50000E+00    4.18742E+00
 1.00000E+01    3.95154E+00
 1.05000E+01    3.75107E+00
 1.10000E+01    3.55085E+00
 1.15000E+01    3.39050E+00
 1.20000E+01    3.23036E+00
 1.25000E+01    3.09699E+00
 1.30000E+01    2.96379E+00
 1.35000E+01    2.84737E+00
 1.40000E+01    2.73108E+00
 1.45000E+01    2.62601E+00
 1.50000E+01    2.52106E+00
 1.55000E+01    2.42471E+00
 1.60000E+01    2.32846E+00
 1.65000E+01    2.23944E+00
 1.70000E+01    2.15051E+00
 1.75000E+01    2.06760E+00
 1.80000E+01    1.98477E+00
 1.85000E+01    1.90753E+00
 1.90000E+01    1.83037E+00
 1.95000E+01    1.75954E+00
 2.00000E+01    1.68877E+00
