# n + Dy161 : (n,n'11)  
# jendl4.0   N.Iwamoto,S.Chiba                 EVAL-Nov09
# uncertainties: n
# # energies =    83
#   E(MeV)       xs(mb) 
 3.16914E-01    0.00000E+00
 3.22700E-01    1.41916E+01
 3.69275E-01    4.03670E+01
 4.00000E-01    5.13284E+01
 4.09541E-01    5.44033E+01
 4.20855E-01    5.78885E+01
 4.46179E-01    6.49992E+01
 4.54262E-01    6.69079E+01
 4.60096E-01    6.81958E+01
 4.88603E-01    7.41949E+01
 5.00000E-01    7.63682E+01
 5.11285E-01    7.85701E+01
 5.15209E-01    7.93256E+01
 5.24266E-01    8.00247E+01
 5.37548E-01    8.16169E+01
 5.53702E-01    8.34092E+01
 5.71502E-01    8.53910E+01
 5.90780E-01    8.65136E+01
 6.00000E-01    8.72728E+01
 6.11389E-01    8.82858E+01
 6.13653E-01    8.84862E+01
 6.32172E-01    8.92174E+01
 6.37136E-01    8.90901E+01
 6.46024E-01    8.89811E+01
 6.82575E-01    8.97978E+01
 6.92614E-01    9.00843E+01
 7.00000E-01    8.97911E+01
 7.00441E-01    8.97909E+01
 7.03522E-01    8.94709E+01
 7.21544E-01    8.91831E+01
 7.23104E-01    8.90054E+01
 7.35494E-01    8.85878E+01
 8.00000E-01    8.75449E+01
 9.00000E-01    8.42305E+01
 1.00000E+00    7.75659E+01
 1.10000E+00    6.99053E+01
 1.20000E+00    6.22620E+01
 1.30000E+00    5.47367E+01
 1.40000E+00    4.77759E+01
 1.50000E+00    4.17742E+01
 1.60000E+00    3.61092E+01
 1.70000E+00    3.12929E+01
 1.80000E+00    2.72372E+01
 1.90000E+00    2.35203E+01
 2.00000E+00    2.03337E+01
 2.25000E+00    1.39625E+01
 2.50000E+00    9.90942E+00
 2.75000E+00    6.83951E+00
 3.00000E+00    4.85964E+00
 3.50000E+00    2.38235E+00
 4.00000E+00    1.17908E+00
 4.50000E+00    5.99755E-01
 5.00000E+00    3.23846E-01
 5.50000E+00    1.92765E-01
 6.00000E+00    1.29678E-01
 6.50000E+00    9.81523E-02
 7.00000E+00    8.13729E-02
 7.50000E+00    7.14879E-02
 8.00000E+00    6.48519E-02
 8.50000E+00    5.98299E-02
 9.00000E+00    5.56935E-02
 9.50000E+00    5.21043E-02
 1.00000E+01    4.89141E-02
 1.05000E+01    4.60598E-02
 1.10000E+01    4.34225E-02
 1.15000E+01    4.10497E-02
 1.20000E+01    3.88411E-02
 1.25000E+01    3.68322E-02
 1.30000E+01    3.49569E-02
 1.35000E+01    3.32445E-02
 1.40000E+01    3.16403E-02
 1.45000E+01    3.01643E-02
 1.50000E+01    2.87834E-02
 1.55000E+01    2.75192E-02
 1.60000E+01    2.63283E-02
 1.65000E+01    2.52154E-02
 1.70000E+01    2.41739E-02
 1.75000E+01    2.31912E-02
 1.80000E+01    2.22709E-02
 1.85000E+01    2.13956E-02
 1.90000E+01    2.05758E-02
 1.95000E+01    1.97886E-02
 2.00000E+01    1.90505E-02
