# n + Dy161 : (n,n'06)  
# jendl4.0   N.Iwamoto,S.Chiba                 EVAL-Nov09
# uncertainties: n
# # energies =    99
#   E(MeV)       xs(mb) 
 1.32585E-01    0.00000E+00
 1.40000E-01    9.48668E+01
 1.50000E-01    1.35337E+02
 1.60000E-01    1.64471E+02
 1.70000E-01    1.87388E+02
 1.80000E-01    2.06972E+02
 1.85385E-01    2.16167E+02
 1.90000E-01    2.23249E+02
 2.00000E-01    2.37200E+02
 2.02347E-01    2.40106E+02
 2.14287E-01    2.52914E+02
 2.25000E-01    2.57569E+02
 2.50000E-01    2.71121E+02
 2.69116E-01    2.78346E+02
 2.75000E-01    2.79794E+02
 3.00000E-01    2.85300E+02
 3.16914E-01    2.88743E+02
 3.22700E-01    2.89699E+02
 3.69275E-01    2.92551E+02
 4.00000E-01    2.91854E+02
 4.09541E-01    2.91984E+02
 4.20855E-01    2.92142E+02
 4.46179E-01    2.87044E+02
 4.54262E-01    2.85896E+02
 4.60096E-01    2.82074E+02
 4.88603E-01    2.74679E+02
 5.00000E-01    2.72357E+02
 5.11285E-01    2.70623E+02
 5.15209E-01    2.70055E+02
 5.24266E-01    2.68582E+02
 5.37548E-01    2.66103E+02
 5.53702E-01    2.59584E+02
 5.71502E-01    2.52653E+02
 5.90780E-01    2.45539E+02
 6.00000E-01    2.42908E+02
 6.11389E-01    2.40122E+02
 6.13653E-01    2.39435E+02
 6.32172E-01    2.32498E+02
 6.37136E-01    2.30859E+02
 6.46024E-01    2.26551E+02
 6.82575E-01    2.15543E+02
 6.92614E-01    2.12119E+02
 7.00000E-01    2.09876E+02
 7.00441E-01    2.09757E+02
 7.03522E-01    2.08430E+02
 7.21544E-01    2.02270E+02
 7.23104E-01    2.01765E+02
 7.35494E-01    1.98297E+02
 8.00000E-01    1.80762E+02
 9.00000E-01    1.57798E+02
 1.00000E+00    1.34408E+02
 1.10000E+00    1.13584E+02
 1.20000E+00    9.54718E+01
 1.30000E+00    8.03631E+01
 1.40000E+00    6.75260E+01
 1.50000E+00    5.68525E+01
 1.60000E+00    4.81291E+01
 1.70000E+00    4.06519E+01
 1.80000E+00    3.43736E+01
 1.90000E+00    2.91949E+01
 2.00000E+00    2.49029E+01
 2.25000E+00    1.64578E+01
 2.50000E+00    1.13436E+01
 2.75000E+00    7.62235E+00
 3.00000E+00    5.24947E+00
 3.50000E+00    2.45546E+00
 4.00000E+00    1.15879E+00
 4.50000E+00    5.58438E-01
 5.00000E+00    2.82508E-01
 5.50000E+00    1.55934E-01
 6.00000E+00    9.73158E-02
 6.50000E+00    6.93334E-02
 7.00000E+00    5.52591E-02
 7.50000E+00    4.74945E-02
 8.00000E+00    4.26013E-02
 8.50000E+00    3.90733E-02
 9.00000E+00    3.62562E-02
 9.50000E+00    3.38554E-02
 1.00000E+01    3.17435E-02
 1.05000E+01    2.98650E-02
 1.10000E+01    2.81332E-02
 1.15000E+01    2.65718E-02
 1.20000E+01    2.51200E-02
 1.25000E+01    2.38038E-02
 1.30000E+01    2.25756E-02
 1.35000E+01    2.14569E-02
 1.40000E+01    2.04110E-02
 1.45000E+01    1.94514E-02
 1.50000E+01    1.85535E-02
 1.55000E+01    1.77317E-02
 1.60000E+01    1.69630E-02
 1.65000E+01    1.62447E-02
 1.70000E+01    1.55725E-02
 1.75000E+01    1.49378E-02
 1.80000E+01    1.43439E-02
 1.85000E+01    1.37781E-02
 1.90000E+01    1.32452E-02
 1.95000E+01    1.27317E-02
 2.00000E+01    1.22520E-02
