# n + F  19 : (n,n'02)  
# tendl.2019 Z.X.Zhao,C.Y.Fu,D.C.Larson, Leal+ EVAL-OCT03
# uncertainties: n
# # energies =    77
#   E(MeV)       xs(mb) 
 2.07460E-01    4.26830E+00
 2.39330E-01    5.54960E+01
 2.50700E-01    8.60180E+01
 2.58500E-01    1.10915E+02
 2.69560E-01    1.56681E+02
 2.76060E-01    1.95573E+02
 2.81580E-01    4.58565E+02
 2.87110E-01    1.84037E+02
 2.92960E-01    2.36268E+02
 3.29040E-01    5.15282E+02
 3.39440E-01    6.18717E+02
 3.54390E-01    8.10276E+02
 3.63160E-01    9.64612E+02
 3.70960E-01    1.14561E+03
 3.79410E-01    1.41627E+03
 3.88520E-01    1.57928E+03
 3.97620E-01    1.88897E+03
 4.07690E-01    1.99196E+03
 4.31740E-01    1.51571E+03
 4.61970E-01    1.00616E+03
 4.98050E-01    7.89190E+02
 5.11270E-01    6.30060E+02
 5.64080E-01    4.78128E+02
 5.87320E-01    9.16278E+02
 6.04230E-01    4.84982E+02
 6.61270E-01    1.81523E+02
 6.80280E-01    1.52801E+02
 7.25350E-01    1.31924E+02
 7.73240E-01    4.94580E+02
 8.28170E-01    3.75642E+02
 8.78170E-01    3.13406E+02
 8.94370E-01    2.79560E+02
 9.26760E-01    3.59440E+02
 9.43660E-01    1.79695E+02
 9.80280E-01    2.00980E+02
 9.97890E-01    1.94097E+02
 1.01620E+00    7.56230E+02
 1.03660E+00    7.06390E+02
 1.05630E+00    8.06070E+02
 1.09650E+00    8.38570E+02
 1.13220E+00    8.08960E+02
 1.18850E+00    8.42180E+02
 1.29250E+00    6.86170E+02
 1.31850E+00    7.03500E+02
 1.34670E+00    6.21160E+02
 1.37920E+00    6.21160E+02
 1.40950E+00    6.94840E+02
 1.44000E+00    6.70000E+02
 1.52000E+00    8.53000E+02
 1.66000E+00    4.90000E+02
 1.70000E+00    4.45000E+02
 1.83000E+00    5.33000E+02
 1.92500E+00    6.76000E+02
 1.97500E+00    5.81000E+02
 2.03000E+00    5.11000E+02
 2.08500E+00    4.71000E+02
 2.15000E+00    5.23000E+02
 2.20000E+00    5.23000E+02
 2.26500E+00    5.34000E+02
 2.40000E+00    4.38000E+02
 3.17000E+00    2.97000E+02
 3.28000E+00    2.90000E+02
 3.40000E+00    3.38000E+02
 3.52000E+00    3.42000E+02
 3.80000E+00    2.66000E+02
 4.00000E+00    2.58000E+02
 5.00000E+00    2.22000E+02
 5.40000E+00    2.47000E+02
 5.92000E+00    1.92000E+02
 6.20000E+00    1.88000E+02
 1.10000E+01    7.71000E+01
 1.20000E+01    6.84000E+01
 1.28000E+01    7.77000E+01
 1.48000E+01    8.35000E+01
 1.59000E+01    7.45000E+01
 1.72000E+01    6.61000E+01
 2.00000E+01    3.60000E+01
