# n + Eu151 : (n,n'15)  
# jendl4.0   N.Iwamoto                         EVAL-Nov09
# uncertainties: n
# # energies =    77
#   E(MeV)       xs(mb) 
 4.18569E-01    0.00000E+00
 5.00000E-01    8.46851E+01
 5.03040E-01    8.55188E+01
 5.05627E-01    8.50307E+01
 5.06785E-01    8.51230E+01
 5.14546E-01    8.54479E+01
 5.25680E-01    8.68047E+01
 5.26334E-01    8.68389E+01
 5.49981E-01    8.95851E+01
 5.83886E-01    9.16987E+01
 5.90984E-01    9.20645E+01
 6.00000E-01    9.11735E+01
 6.04493E-01    9.12202E+01
 6.04755E-01    9.11615E+01
 6.15506E-01    9.08694E+01
 6.36929E-01    9.15754E+01
 6.58774E-01    9.27393E+01
 7.00000E-01    9.34474E+01
 7.01970E-01    9.35131E+01
 7.02846E-01    9.33241E+01
 7.19658E-01    9.33749E+01
 7.19779E-01    9.32993E+01
 7.23987E-01    9.30148E+01
 7.39922E-01    9.30500E+01
 7.57408E-01    9.34135E+01
 7.62804E-01    9.35740E+01
 8.00000E-01    9.48317E+01
 9.00000E-01    9.35299E+01
 1.00000E+00    8.93763E+01
 1.10000E+00    8.29068E+01
 1.20000E+00    7.45896E+01
 1.30000E+00    6.67950E+01
 1.40000E+00    5.97097E+01
 1.50000E+00    5.21076E+01
 1.60000E+00    4.48937E+01
 1.70000E+00    3.83776E+01
 1.80000E+00    3.26065E+01
 1.90000E+00    2.75674E+01
 2.00000E+00    2.32279E+01
 2.25000E+00    1.52413E+01
 2.50000E+00    9.65402E+00
 2.75000E+00    6.24819E+00
 3.00000E+00    4.33258E+00
 3.50000E+00    1.97725E+00
 4.00000E+00    9.92886E-01
 4.50000E+00    5.79223E-01
 5.00000E+00    4.00556E-01
 5.50000E+00    3.17672E-01
 6.00000E+00    2.74585E-01
 6.50000E+00    2.48021E-01
 7.00000E+00    2.28230E-01
 7.50000E+00    2.11255E-01
 8.00000E+00    1.95952E-01
 8.50000E+00    1.82205E-01
 9.00000E+00    1.70074E-01
 9.50000E+00    1.59564E-01
 1.00000E+01    1.50436E-01
 1.05000E+01    1.42441E-01
 1.10000E+01    1.35268E-01
 1.15000E+01    1.28697E-01
 1.20000E+01    1.22550E-01
 1.25000E+01    1.16744E-01
 1.30000E+01    1.11334E-01
 1.35000E+01    1.06306E-01
 1.40000E+01    1.01625E-01
 1.45000E+01    9.72288E-02
 1.50000E+01    9.30608E-02
 1.55000E+01    8.91346E-02
 1.60000E+01    8.53423E-02
 1.65000E+01    8.17047E-02
 1.70000E+01    7.81874E-02
 1.75000E+01    7.48520E-02
 1.80000E+01    7.16692E-02
 1.85000E+01    6.86708E-02
 1.90000E+01    6.58750E-02
 1.95000E+01    6.32779E-02
 2.00000E+01    6.08595E-02
