# n + Os  0 : (n,xn)
# jendl.ad   N.Iwamoto                         EVAL-Apr14
#
# # energies =   117
#   E(MeV)          xs(mb) 
 9.79858E-03    2.34787E-31
 1.00000E-02    1.72476E+01
 2.00000E-02    3.68248E+01
 3.00000E-02    3.24974E+01
 4.00000E-02    2.92201E+01
 5.00000E-02    2.68427E+01
 6.00000E-02    2.51335E+01
 7.00000E-02    2.38612E+01
 7.47310E-02    2.33594E+01
 7.54449E-02    2.59787E+01
 8.00000E-02    2.87427E+01
 9.00000E-02    2.99816E+01
 1.00000E-01    3.04840E+01
 1.00546E-01    3.04911E+01
 1.01092E-01    3.04982E+01
 1.10000E-01    3.08293E+01
 1.17631E-01    3.09539E+01
 1.20000E-01    3.19477E+01
 1.30000E-01    3.26519E+01
 1.40000E-01    3.57667E+01
 1.50000E-01    3.76855E+01
 1.60000E-01    7.27888E+01
 1.70000E-01    8.62454E+01
 1.80000E-01    9.71729E+01
 1.88411E-01    1.27078E+02
 1.90000E-01    1.77301E+02
 1.91628E-01    1.83680E+02
 2.00000E-01    2.16507E+02
 2.25000E-01    4.73696E+02
 2.50000E-01    5.90466E+02
 2.58557E-01    6.30165E+02
 2.58558E-01    6.30169E+02
 2.64721E-01    6.58589E+02
 2.75000E-01    7.05986E+02
 3.00000E-01    8.01017E+02
 3.35058E-01    9.16972E+02
 3.43342E-01    9.44417E+02
 3.51888E-01    9.72697E+02
 4.00000E-01    1.13194E+03
 4.21261E-01    1.18001E+03
 4.44385E-01    1.23223E+03
 4.47441E-01    1.23948E+03
 4.61979E-01    1.27263E+03
 4.66503E-01    1.28289E+03
 5.00000E-01    1.40058E+03
 5.04155E-01    1.41080E+03
 5.10962E-01    1.42783E+03
 5.14360E-01    1.43623E+03
 5.39455E-01    1.49798E+03
 5.59905E-01    1.54866E+03
 5.89473E-01    1.64969E+03
 5.99668E-01    1.68310E+03
 6.00000E-01    1.68422E+03
 6.14296E-01    1.71032E+03
 6.21334E-01    1.72325E+03
 6.45333E-01    1.76923E+03
 6.67713E-01    1.81603E+03
 6.73615E-01    1.82844E+03
 6.87690E-01    1.85785E+03
 6.88193E-01    1.85891E+03
 7.00000E-01    1.89277E+03
 7.15067E-01    1.91600E+03
 7.29656E-01    1.93851E+03
 7.31023E-01    1.94065E+03
 7.49019E-01    1.96843E+03
 7.61084E-01    1.98733E+03
 8.00000E-01    2.06015E+03
 9.00000E-01    2.17208E+03
 1.00000E+00    2.29640E+03
 1.10000E+00    2.36699E+03
 1.20000E+00    2.46406E+03
 1.30000E+00    2.52177E+03
 1.40000E+00    2.57740E+03
 1.50000E+00    2.64516E+03
 1.60000E+00    2.69314E+03
 1.70000E+00    2.73494E+03
 1.80000E+00    2.76913E+03
 1.90000E+00    2.79974E+03
 2.00000E+00    2.82221E+03
 2.25000E+00    2.84504E+03
 2.50000E+00    2.85404E+03
 2.75000E+00    2.85181E+03
 3.00000E+00    2.85126E+03
 3.50000E+00    2.83991E+03
 4.00000E+00    2.82610E+03
 4.50000E+00    2.80868E+03
 5.00000E+00    2.78812E+03
 5.50000E+00    2.75918E+03
 6.00000E+00    2.72544E+03
 6.50000E+00    2.68895E+03
 7.00000E+00    2.66362E+03
 7.50000E+00    2.65044E+03
 8.00000E+00    2.81634E+03
 8.50000E+00    3.33776E+03
 9.00000E+00    3.86735E+03
 9.50000E+00    4.23876E+03
 1.00000E+01    4.45763E+03
 1.05000E+01    4.57404E+03
 1.10000E+01    4.63211E+03
 1.15000E+01    4.65559E+03
 1.20000E+01    4.66005E+03
 1.25000E+01    4.65469E+03
 1.30000E+01    4.64496E+03
 1.35000E+01    4.63542E+03
 1.40000E+01    4.62411E+03
 1.45000E+01    4.62704E+03
 1.50000E+01    4.67268E+03
 1.55000E+01    4.78400E+03
 1.60000E+01    4.95156E+03
 1.65000E+01    5.14966E+03
 1.70000E+01    5.35145E+03
 1.75000E+01    5.53784E+03
 1.80000E+01    5.69843E+03
 1.85000E+01    5.82974E+03
 1.90000E+01    5.93294E+03
 1.95000E+01    6.01166E+03
 2.00000E+01    6.07041E+03
