# n + La137 : (n,xn)    
# jendl.ad   N.Iwamoto                         EVAL-Apr14
# 
# # energies =    91
#   E(MeV)        xs(mb) 
 1.06680E-02    0.00000E+00
 2.00000E-02    4.84985E+02
 3.00000E-02    4.83879E+02
 4.00000E-02    4.75337E+02
 5.00000E-02    4.71644E+02
 6.00000E-02    4.65868E+02
 7.00000E-02    4.63768E+02
 8.00000E-02    4.61744E+02
 9.00000E-02    4.59107E+02
 1.00000E-01    4.56550E+02
 1.05000E-01    4.57315E+02
 1.10000E-01    4.58083E+02
 1.20000E-01    4.57744E+02
 1.30000E-01    4.57104E+02
 1.40000E-01    4.56303E+02
 1.50000E-01    4.55358E+02
 1.60000E-01    4.54938E+02
 1.70000E-01    4.57845E+02
 1.80000E-01    4.59127E+02
 1.90000E-01    4.60225E+02
 2.00000E-01    4.61079E+02
 2.25000E-01    4.62222E+02
 2.50000E-01    4.61981E+02
 2.75000E-01    4.70510E+02
 3.00000E-01    4.77018E+02
 4.00000E-01    4.90991E+02
 4.50464E-01    5.11896E+02
 4.50465E-01    5.11896E+02
 4.96723E-01    5.78847E+02
 5.00000E-01    5.85240E+02
 6.00000E-01    6.67476E+02
 6.46690E-01    6.96053E+02
 7.00000E-01    7.36028E+02
 7.14526E-01    7.45633E+02
 7.67886E-01    7.84828E+02
 7.87328E-01    8.59828E+02
 8.00000E-01    9.13693E+02
 8.41525E-01    1.00325E+03
 9.00000E-01    1.14689E+03
 9.24199E-01    1.18235E+03
 9.33155E-01    1.21122E+03
 1.00000E+00    1.32978E+03
 1.01202E+00    1.34614E+03
 1.10000E+00    1.46415E+03
 1.20000E+00    1.56690E+03
 1.30000E+00    1.66056E+03
 1.40000E+00    1.74327E+03
 1.50000E+00    1.80726E+03
 1.60000E+00    1.86248E+03
 1.70000E+00    1.90557E+03
 1.80000E+00    1.94505E+03
 1.90000E+00    1.97560E+03
 2.00000E+00    2.00521E+03
 2.25000E+00    2.07195E+03
 2.50000E+00    2.12612E+03
 2.75000E+00    2.18644E+03
 3.00000E+00    2.23934E+03
 3.50000E+00    2.30967E+03
 4.00000E+00    2.33067E+03
 4.50000E+00    2.30278E+03
 5.00000E+00    2.25611E+03
 5.50000E+00    2.20751E+03
 6.00000E+00    2.16733E+03
 6.50000E+00    2.14075E+03
 7.00000E+00    2.12437E+03
 7.50000E+00    2.11430E+03
 8.00000E+00    2.10696E+03
 8.50000E+00    2.09994E+03
 9.00000E+00    2.09103E+03
 9.50000E+00    2.10989E+03
 1.00000E+01    2.33655E+03
 1.05000E+01    2.66043E+03
 1.10000E+01    2.96961E+03
 1.15000E+01    3.21536E+03
 1.20000E+01    3.38558E+03
 1.25000E+01    3.50899E+03
 1.30000E+01    3.59083E+03
 1.35000E+01    3.65126E+03
 1.40000E+01    3.69072E+03
 1.45000E+01    3.71632E+03
 1.50000E+01    3.73641E+03
 1.55000E+01    3.75137E+03
 1.60000E+01    3.76159E+03
 1.65000E+01    3.76545E+03
 1.70000E+01    3.77103E+03
 1.75000E+01    3.77173E+03
 1.80000E+01    3.78982E+03
 1.85000E+01    3.82298E+03
 1.90000E+01    3.88674E+03
 1.95000E+01    3.98256E+03
 2.00000E+01    4.09390E+03
