# n + Dy160 : (n,n'18)  
# jendl4.0   N.Iwamoto,S.Chiba                 EVAL-Nov09
# uncertainties: n
# # energies =    66
#   E(MeV)       xs(mb) 
 1.44761E+00    0.00000E+00
 1.46594E+00    1.65150E-09
 1.49889E+00    2.49960E-08
 1.50000E+00    2.93330E-08
 1.52800E+00    2.24526E-06
 1.53193E+00    2.56440E-06
 1.54483E+00    3.62975E-06
 1.56641E+00    5.49614E-06
 1.59675E+00    8.37715E-06
 1.60000E+00    8.70986E-06
 1.60443E+00    9.17146E-06
 1.61390E+00    1.01826E-05
 1.61698E+00    1.05248E-05
 1.61800E+00    1.06377E-05
 1.62416E+00    1.13388E-05
 1.62747E+00    1.16773E-05
 1.65362E+00    1.48195E-05
 1.66128E+00    1.58338E-05
 1.66237E+00    1.59815E-05
 1.66409E+00    1.62172E-05
 1.66543E+00    1.64021E-05
 1.68667E+00    1.95530E-05
 1.70000E+00    2.17596E-05
 1.70505E+00    2.26482E-05
 1.71891E+00    2.52533E-05
 1.80000E+00    4.76820E-05
 1.90000E+00    9.87541E-05
 2.00000E+00    2.05807E-04
 2.25000E+00    1.11519E-03
 2.50000E+00    2.46832E-03
 2.75000E+00    7.53238E-03
 3.00000E+00    1.48251E-01
 3.50000E+00    1.90324E-01
 4.00000E+00    2.65978E-01
 4.50000E+00    3.96388E-01
 5.00000E+00    5.82647E-01
 5.50000E+00    7.95379E-01
 6.00000E+00    9.86734E-01
 6.50000E+00    1.11876E+00
 7.00000E+00    1.18368E+00
 7.50000E+00    1.19993E+00
 8.00000E+00    1.19341E+00
 8.50000E+00    1.18231E+00
 9.00000E+00    1.17333E+00
 9.50000E+00    1.16526E+00
 1.00000E+01    1.15433E+00
 1.05000E+01    1.13429E+00
 1.10000E+01    1.11454E+00
 1.15000E+01    1.08342E+00
 1.20000E+01    1.05253E+00
 1.25000E+01    1.01574E+00
 1.30000E+01    9.79151E-01
 1.35000E+01    9.40170E-01
 1.40000E+01    9.01351E-01
 1.45000E+01    8.62294E-01
 1.50000E+01    8.23379E-01
 1.55000E+01    7.86644E-01
 1.60000E+01    7.50062E-01
 1.65000E+01    7.17037E-01
 1.70000E+01    6.84179E-01
 1.75000E+01    6.54527E-01
 1.80000E+01    6.24922E-01
 1.85000E+01    5.97676E-01
 1.90000E+01    5.70627E-01
 1.95000E+01    5.45620E-01
 2.00000E+01    5.20652E-01
