# n + Dy160 : (n,n'10)  
# jendl4.0   N.Iwamoto,S.Chiba                 EVAL-Nov09
# uncertainties: n
# # energies =    77
#   E(MeV)       xs(mb) 
 1.29371E+00    0.00000E+00
 1.29482E+00    1.25354E+01
 1.29679E+00    2.01040E+01
 1.30000E+00    2.79999E+01
 1.35827E+00    8.93096E+01
 1.36724E+00    9.50329E+01
 1.39520E+00    1.08708E+02
 1.40000E+00    1.10730E+02
 1.40778E+00    1.13890E+02
 1.41735E+00    1.17545E+02
 1.43704E+00    1.23677E+02
 1.44761E+00    1.26463E+02
 1.46594E+00    1.30862E+02
 1.49889E+00    1.35838E+02
 1.50000E+00    1.35275E+02
 1.52800E+00    1.35581E+02
 1.53193E+00    1.35191E+02
 1.54483E+00    1.35102E+02
 1.56641E+00    1.35242E+02
 1.59675E+00    1.33484E+02
 1.60000E+00    1.33325E+02
 1.60443E+00    1.33120E+02
 1.61390E+00    1.32710E+02
 1.61698E+00    1.32581E+02
 1.61800E+00    1.32540E+02
 1.62416E+00    1.32295E+02
 1.62747E+00    1.32164E+02
 1.65362E+00    1.31260E+02
 1.66128E+00    1.30950E+02
 1.66237E+00    1.30903E+02
 1.66409E+00    1.30836E+02
 1.66543E+00    1.30784E+02
 1.68667E+00    1.30086E+02
 1.70000E+00    1.29505E+02
 1.70505E+00    1.29260E+02
 1.71891E+00    1.28591E+02
 1.80000E+00    1.23707E+02
 1.90000E+00    1.15939E+02
 2.00000E+00    1.04904E+02
 2.25000E+00    7.35217E+01
 2.50000E+00    5.31381E+01
 2.75000E+00    3.50100E+01
 3.00000E+00    2.37060E+01
 3.50000E+00    1.02390E+01
 4.00000E+00    4.34580E+00
 4.50000E+00    1.83293E+00
 5.00000E+00    7.74559E-01
 5.50000E+00    3.31762E-01
 6.00000E+00    1.47612E-01
 6.50000E+00    7.13488E-02
 7.00000E+00    3.95993E-02
 7.50000E+00    2.61503E-02
 8.00000E+00    2.01368E-02
 8.50000E+00    1.71232E-02
 9.00000E+00    1.53504E-02
 9.50000E+00    1.41240E-02
 1.00000E+01    1.31632E-02
 1.05000E+01    1.23624E-02
 1.10000E+01    1.16453E-02
 1.15000E+01    1.10084E-02
 1.20000E+01    1.04193E-02
 1.25000E+01    9.88360E-03
 1.30000E+01    9.38402E-03
 1.35000E+01    8.92475E-03
 1.40000E+01    8.49492E-03
 1.45000E+01    8.09742E-03
 1.50000E+01    7.72517E-03
 1.55000E+01    7.37839E-03
 1.60000E+01    7.06201E-03
 1.65000E+01    6.75388E-03
 1.70000E+01    6.48002E-03
 1.75000E+01    6.21985E-03
 1.80000E+01    5.96529E-03
 1.85000E+01    5.72021E-03
 1.90000E+01    5.50974E-03
 1.95000E+01    5.31081E-03
 2.00000E+01    5.12058E-03
