# n + Dy160 : (n,n'08)  
# jendl4.0   N.Iwamoto,S.Chiba                 EVAL-Nov09
# uncertainties: n
# # energies =    79
#   E(MeV)       xs(mb) 
 1.27273E+00    0.00000E+00
 1.28801E+00    3.48653E+01
 1.29371E+00    4.15784E+01
 1.29482E+00    4.24879E+01
 1.29679E+00    4.43141E+01
 1.30000E+00    4.73598E+01
 1.35827E+00    9.36582E+01
 1.36724E+00    9.82718E+01
 1.39520E+00    1.09704E+02
 1.40000E+00    1.11681E+02
 1.40778E+00    1.14493E+02
 1.41735E+00    1.17237E+02
 1.43704E+00    1.22936E+02
 1.44761E+00    1.25829E+02
 1.46594E+00    1.30572E+02
 1.49889E+00    1.35915E+02
 1.50000E+00    1.35768E+02
 1.52800E+00    1.38344E+02
 1.53193E+00    1.37971E+02
 1.54483E+00    1.38418E+02
 1.56641E+00    1.39524E+02
 1.59675E+00    1.38880E+02
 1.60000E+00    1.38898E+02
 1.60443E+00    1.38931E+02
 1.61390E+00    1.39028E+02
 1.61698E+00    1.39050E+02
 1.61800E+00    1.39060E+02
 1.62416E+00    1.39104E+02
 1.62747E+00    1.39131E+02
 1.65362E+00    1.39433E+02
 1.66128E+00    1.39265E+02
 1.66237E+00    1.39241E+02
 1.66409E+00    1.39216E+02
 1.66543E+00    1.39195E+02
 1.68667E+00    1.38736E+02
 1.70000E+00    1.38311E+02
 1.70505E+00    1.38183E+02
 1.71891E+00    1.37821E+02
 1.80000E+00    1.35105E+02
 1.90000E+00    1.29099E+02
 2.00000E+00    1.18837E+02
 2.25000E+00    8.59630E+01
 2.50000E+00    6.39785E+01
 2.75000E+00    4.32404E+01
 3.00000E+00    3.02926E+01
 3.50000E+00    1.37926E+01
 4.00000E+00    6.25277E+00
 4.50000E+00    2.92755E+00
 5.00000E+00    1.48206E+00
 5.50000E+00    8.52130E-01
 6.00000E+00    5.71373E-01
 6.50000E+00    4.39352E-01
 7.00000E+00    3.70723E-01
 7.50000E+00    3.29750E-01
 8.00000E+00    3.01355E-01
 8.50000E+00    2.79187E-01
 9.00000E+00    2.60530E-01
 9.50000E+00    2.44165E-01
 1.00000E+01    2.29484E-01
 1.05000E+01    2.16361E-01
 1.10000E+01    2.04179E-01
 1.15000E+01    1.93171E-01
 1.20000E+01    1.82897E-01
 1.25000E+01    1.73517E-01
 1.30000E+01    1.64750E-01
 1.35000E+01    1.56682E-01
 1.40000E+01    1.49129E-01
 1.45000E+01    1.42141E-01
 1.50000E+01    1.35599E-01
 1.55000E+01    1.29536E-01
 1.60000E+01    1.23933E-01
 1.65000E+01    1.18544E-01
 1.70000E+01    1.13755E-01
 1.75000E+01    1.09141E-01
 1.80000E+01    1.04687E-01
 1.85000E+01    1.00400E-01
 1.90000E+01    9.66930E-02
 1.95000E+01    9.31826E-02
 2.00000E+01    8.98542E-02
