# n + B  11 : (n,n'01)  
# jendl4.0   T.FUKAHORI                        EVAL-MAY88
# uncertainties: n
# # energies =   105
#   E(MeV)       xs(mb) 
 2.31970E+00    0.00000E+00
 2.31980E+00    4.84333E-02
 2.31990E+00    9.68667E-02
 2.32000E+00    1.45300E-01
 2.34000E+00    3.32990E-01
 2.36000E+00    4.79620E-01
 2.38000E+00    6.26210E-01
 2.40000E+00    7.87830E-01
 2.42000E+00    9.80030E-01
 2.44000E+00    1.22770E+00
 2.46000E+00    1.58010E+00
 2.48000E+00    2.15090E+00
 2.50000E+00    3.24560E+00
 2.52000E+00    5.84870E+00
 2.54000E+00    1.35770E+01
 2.56000E+00    3.01740E+01
 2.58000E+00    2.39940E+01
 2.60000E+00    1.39140E+01
 2.62000E+00    9.89180E+00
 2.64000E+00    8.29350E+00
 2.67000E+00    7.58070E+00
 2.70000E+00    7.71980E+00
 2.73300E+00    8.35380E+00
 2.76700E+00    9.32380E+00
 2.80000E+00    1.04590E+01
 2.83300E+00    1.16900E+01
 2.86700E+00    1.29550E+01
 2.90000E+00    1.40830E+01
 2.93300E+00    1.50340E+01
 2.96700E+00    1.57850E+01
 3.00000E+00    1.62960E+01
 3.03300E+00    1.66380E+01
 3.06700E+00    1.68860E+01
 3.10000E+00    1.71070E+01
 3.13300E+00    1.73920E+01
 3.16700E+00    1.78410E+01
 3.20000E+00    1.85150E+01
 3.23300E+00    1.95250E+01
 3.26700E+00    2.10470E+01
 3.30000E+00    2.31630E+01
 3.33300E+00    2.61280E+01
 3.36700E+00    3.03630E+01
 3.40000E+00    3.59090E+01
 3.43300E+00    4.29690E+01
 3.46700E+00    5.12490E+01
 3.50000E+00    5.84580E+01
 3.53300E+00    6.21650E+01
 3.56700E+00    6.07560E+01
 3.60000E+00    5.55700E+01
 3.63300E+00    4.91570E+01
 3.66700E+00    4.31670E+01
 3.70000E+00    3.86750E+01
 3.75000E+00    3.44740E+01
 3.80000E+00    3.30030E+01
 3.85000E+00    3.38290E+01
 3.90000E+00    3.64670E+01
 3.95000E+00    3.97270E+01
 4.00000E+00    4.14650E+01
 4.00000E+00    4.24130E+01
 4.05000E+00    4.47880E+01
 4.10000E+00    4.76240E+01
 4.15000E+00    5.12650E+01
 4.20000E+00    5.59960E+01
 4.25000E+00    6.20560E+01
 4.30000E+00    6.96860E+01
 4.35000E+00    7.91620E+01
 4.40000E+00    9.07470E+01
 4.45000E+00    1.04590E+02
 4.50000E+00    1.20470E+02
 4.55000E+00    1.37520E+02
 4.60000E+00    1.53940E+02
 4.65000E+00    1.67320E+02
 4.70000E+00    1.75720E+02
 4.75000E+00    1.78680E+02
 4.80000E+00    1.77400E+02
 4.85000E+00    1.73850E+02
 4.90000E+00    1.70060E+02
 4.95000E+00    1.67800E+02
 5.00000E+00    1.68480E+02
 5.05000E+00    1.73060E+02
 5.10000E+00    1.81440E+02
 5.15000E+00    1.91530E+02
 5.20000E+00    1.98610E+02
 5.25000E+00    1.97320E+02
 5.30000E+00    1.85250E+02
 5.50000E+00    1.70000E+02
 6.00000E+00    1.55025E+02
 7.00000E+00    1.25075E+02
 8.00000E+00    1.03126E+02
 8.00000E+00    1.03126E+02
 9.00000E+00    9.26677E+01
 1.00000E+01    8.22094E+01
 1.00320E+01    8.18139E+01
 1.10000E+01    6.88094E+01
 1.15712E+01    6.25646E+01
 1.20000E+01    5.76234E+01
 1.30000E+01    4.66204E+01
 1.40000E+01    3.65708E+01
 1.50000E+01    2.80818E+01
 1.60000E+01    2.04211E+01
 1.70000E+01    1.52569E+01
 1.80000E+01    1.11281E+01
 1.90000E+01    9.55941E+00
 1.90000E+01    9.55941E+00
 2.00000E+01    8.36591E+00
