# n + W 182 : (n,n'12)  
# jendl4.0   N.Iwamoto                         EVAL-Feb10
# uncertainties: n
# # energies =    73
#   E(MeV)       xs(mb) 
 1.49576E+00    0.00000E+00
 1.50000E+00    8.62560E+00
 1.51856E+00    1.78072E+01
 1.56185E+00    2.82759E+01
 1.60000E+00    3.37127E+01
 1.63028E+00    3.83018E+01
 1.63255E+00    3.86359E+01
 1.66960E+00    4.39740E+01
 1.70000E+00    4.81534E+01
 1.72139E+00    5.11516E+01
 1.76654E+00    5.71944E+01
 1.77522E+00    5.82623E+01
 1.77878E+00    5.85593E+01
 1.77931E+00    5.86124E+01
 1.80000E+00    6.09275E+01
 1.81972E+00    6.31782E+01
 1.82095E+00    6.33088E+01
 1.82345E+00    6.35835E+01
 1.83969E+00    6.44840E+01
 1.84326E+00    6.47975E+01
 1.86632E+00    6.66345E+01
 1.86719E+00    6.66593E+01
 1.88154E+00    6.75911E+01
 1.89832E+00    6.86207E+01
 1.90000E+00    6.87013E+01
 1.92762E+00    7.00800E+01
 1.92924E+00    7.01662E+01
 1.97014E+00    7.23400E+01
 1.97122E+00    7.23504E+01
 1.97166E+00    7.23657E+01
 1.98205E+00    7.28155E+01
 1.98936E+00    7.31596E+01
 1.99282E+00    7.33204E+01
 2.00000E+00    7.36531E+01
 2.00484E+00    7.38762E+01
 2.25000E+00    7.58692E+01
 2.50000E+00    6.87307E+01
 2.75000E+00    5.18346E+01
 3.00000E+00    3.97665E+01
 3.50000E+00    1.99621E+01
 4.00000E+00    9.48025E+00
 4.50000E+00    4.42619E+00
 5.00000E+00    2.12102E+00
 5.50000E+00    1.09985E+00
 6.00000E+00    6.52474E-01
 6.50000E+00    4.52559E-01
 7.00000E+00    3.58007E-01
 7.50000E+00    3.07452E-01
 8.00000E+00    2.75613E-01
 8.50000E+00    2.52411E-01
 9.00000E+00    2.33783E-01
 9.50000E+00    2.17957E-01
 1.00000E+01    2.04025E-01
 1.05000E+01    1.91513E-01
 1.10000E+01    1.80075E-01
 1.15000E+01    1.69508E-01
 1.20000E+01    1.59705E-01
 1.25000E+01    1.50611E-01
 1.30000E+01    1.42197E-01
 1.35000E+01    1.34445E-01
 1.40000E+01    1.27329E-01
 1.45000E+01    1.20811E-01
 1.50000E+01    1.14842E-01
 1.55000E+01    1.09358E-01
 1.60000E+01    1.04296E-01
 1.65000E+01    9.95923E-02
 1.70000E+01    9.51863E-02
 1.75000E+01    9.10259E-02
 1.80000E+01    8.70710E-02
 1.85000E+01    8.32915E-02
 1.90000E+01    7.96725E-02
 1.95000E+01    7.62039E-02
 2.00000E+01    7.28907E-02
