# n + W 182 : (n,n'01)  
# jendl4.0   N.Iwamoto                         EVAL-Feb10
# uncertainties: n
# # energies =   109
#   E(MeV)       xs(mb) 
 1.00661E-01    0.00000E+00
 1.10000E-01    1.47072E+02
 1.20000E-01    2.04995E+02
 1.30000E-01    2.59715E+02
 1.40000E-01    3.10752E+02
 1.50000E-01    3.58575E+02
 1.60000E-01    4.04384E+02
 1.70000E-01    4.45998E+02
 1.80000E-01    4.85929E+02
 1.90000E-01    5.24687E+02
 2.00000E-01    5.62885E+02
 2.25000E-01    6.52473E+02
 2.50000E-01    7.39655E+02
 2.75000E-01    8.15691E+02
 3.00000E-01    8.86980E+02
 3.31253E-01    9.73204E+02
 4.00000E-01    1.13729E+03
 5.00000E-01    1.30735E+03
 6.00000E-01    1.42175E+03
 6.84272E-01    1.49093E+03
 7.00000E-01    1.50086E+03
 8.00000E-01    1.54184E+03
 9.00000E-01    1.56627E+03
 1.00000E+00    1.58656E+03
 1.10000E+00    1.59759E+03
 1.14211E+00    1.59523E+03
 1.15074E+00    1.58361E+03
 1.20000E+00    1.56592E+03
 1.22818E+00    1.55728E+03
 1.26439E+00    1.49433E+03
 1.29631E+00    1.42843E+03
 1.30000E+00    1.41166E+03
 1.33851E+00    1.35085E+03
 1.38146E+00    1.28449E+03
 1.40000E+00    1.25329E+03
 1.45082E+00    1.19437E+03
 1.49576E+00    1.14770E+03
 1.50000E+00    1.14183E+03
 1.51856E+00    1.12235E+03
 1.56185E+00    1.08078E+03
 1.60000E+00    1.04454E+03
 1.63028E+00    1.01866E+03
 1.63255E+00    1.01680E+03
 1.66960E+00    9.87572E+02
 1.70000E+00    9.65384E+02
 1.72139E+00    9.50465E+02
 1.76654E+00    9.20762E+02
 1.77522E+00    9.15321E+02
 1.77878E+00    9.11444E+02
 1.77931E+00    9.10999E+02
 1.80000E+00    8.96422E+02
 1.81972E+00    8.83638E+02
 1.82095E+00    8.82856E+02
 1.82345E+00    8.81270E+02
 1.83969E+00    8.68895E+02
 1.84326E+00    8.66501E+02
 1.86632E+00    8.48789E+02
 1.86719E+00    8.46965E+02
 1.88154E+00    8.29980E+02
 1.89832E+00    8.12209E+02
 1.90000E+00    8.09960E+02
 1.92762E+00    7.86790E+02
 1.92924E+00    7.85609E+02
 1.97014E+00    7.55688E+02
 1.97122E+00    7.54112E+02
 1.97166E+00    7.53673E+02
 1.98205E+00    7.45584E+02
 1.98936E+00    7.40589E+02
 1.99282E+00    7.38295E+02
 2.00000E+00    7.32674E+02
 2.00484E+00    7.29365E+02
 2.25000E+00    5.97698E+02
 2.50000E+00    5.04592E+02
 2.75000E+00    4.27506E+02
 3.00000E+00    3.80755E+02
 3.50000E+00    3.23700E+02
 4.00000E+00    2.98356E+02
 4.50000E+00    2.87819E+02
 5.00000E+00    2.83710E+02
 5.50000E+00    2.81573E+02
 6.00000E+00    2.79194E+02
 6.50000E+00    2.75775E+02
 7.00000E+00    2.71517E+02
 7.50000E+00    2.66760E+02
 8.00000E+00    2.61924E+02
 8.50000E+00    2.57286E+02
 9.00000E+00    2.52982E+02
 9.50000E+00    2.49095E+02
 1.00000E+01    2.45567E+02
 1.05000E+01    2.42335E+02
 1.10000E+01    2.39275E+02
 1.15000E+01    2.36286E+02
 1.20000E+01    2.33304E+02
 1.25000E+01    2.30316E+02
 1.30000E+01    2.27347E+02
 1.35000E+01    2.24437E+02
 1.40000E+01    2.21624E+02
 1.45000E+01    2.18925E+02
 1.50000E+01    2.16333E+02
 1.55000E+01    2.13814E+02
 1.60000E+01    2.11322E+02
 1.65000E+01    2.08800E+02
 1.70000E+01    2.06198E+02
 1.75000E+01    2.03486E+02
 1.80000E+01    2.00662E+02
 1.85000E+01    1.97754E+02
 1.90000E+01    1.94819E+02
 1.95000E+01    1.91928E+02
 2.00000E+01    1.89157E+02
