# n + Cr 50 : (n,xa)    
# jendl4.0   N.Iwamoto                         EVAL-Dec09
# 
# # energies =   110
#   E(MeV)        xs(mb) 
 1.05000E-01    0.00000E+00
 1.10000E-01    0.00000E+00
 1.20000E-01    0.00000E+00
 1.30000E-01    0.00000E+00
 1.40000E-01    0.00000E+00
 1.50000E-01    0.00000E+00
 1.60000E-01    0.00000E+00
 1.70000E-01    0.00000E+00
 1.80000E-01    0.00000E+00
 1.90000E-01    0.00000E+00
 2.00000E-01    0.00000E+00
 2.25000E-01    0.00000E+00
 2.50000E-01    0.00000E+00
 2.75000E-01    0.00000E+00
 3.00000E-01    0.00000E+00
 4.00000E-01    0.00000E+00
 5.00000E-01    0.00000E+00
 6.00000E-01    0.00000E+00
 7.00000E-01    0.00000E+00
 7.99119E-01    0.00000E+00
 8.00000E-01    0.00000E+00
 9.00000E-01    0.00000E+00
 1.00000E+00    4.08607E-10
 1.10000E+00    1.23565E-09
 1.20000E+00    2.16142E-09
 1.30000E+00    4.08839E-09
 1.40000E+00    7.38216E-09
 1.50000E+00    1.15400E-08
 1.60000E+00    1.79666E-08
 1.70000E+00    2.49875E-08
 1.80000E+00    8.25760E-08
 1.90000E+00    3.83857E-07
 1.91928E+00    4.96528E-07
 2.00000E+00    1.07906E-06
 2.25000E+00    1.12189E-05
 2.50000E+00    8.72425E-05
 2.75000E+00    5.17703E-04
 2.98356E+00    2.23155E-03
 3.00000E+00    2.33190E-03
 3.22494E+00    7.55604E-03
 3.22758E+00    7.53398E-03
 3.39171E+00    1.58624E-02
 3.50000E+00    2.52861E-02
 3.66714E+00    5.02138E-02
 3.67474E+00    5.16596E-02
 3.68423E+00    5.34300E-02
 3.70280E+00    5.71151E-02
 3.76656E+00    7.09318E-02
 3.76860E+00    7.14021E-02
 3.77238E+00    7.22736E-02
 3.86889E+00    9.70546E-02
 3.90265E+00    1.08090E-01
 3.90429E+00    1.08658E-01
 3.92194E+00    1.14771E-01
 3.92775E+00    1.16784E-01
 3.95315E+00    1.26143E-01
 3.97397E+00    1.34365E-01
 3.97672E+00    1.34456E-01
 4.00000E+00    1.42551E-01
 4.01722E+00    1.49614E-01
 4.12159E+00    1.96386E-01
 4.13352E+00    2.02641E-01
 4.15260E+00    2.05177E-01
 4.21310E+00    2.34178E-01
 4.27758E+00    2.74258E-01
 4.29196E+00    2.81926E-01
 4.36848E+00    3.33561E-01
 4.43785E+00    3.85940E-01
 4.45111E+00    3.98203E-01
 4.50000E+00    4.47173E-01
 4.61526E+00    5.85861E-01
 4.63801E+00    6.16046E-01
 4.74748E+00    7.64595E-01
 4.77043E+00    8.03297E-01
 4.82348E+00    8.92999E-01
 4.83572E+00    9.14034E-01
 4.84083E+00    9.22815E-01
 4.86837E+00    9.75085E-01
 4.89796E+00    1.03176E+00
 5.00000E+00    1.24265E+00
 5.50000E+00    2.83333E+00
 6.00000E+00    5.46859E+00
 6.50000E+00    9.09948E+00
 7.00000E+00    1.33951E+01
 7.50000E+00    1.82902E+01
 8.00000E+00    2.41532E+01
 8.50000E+00    3.16030E+01
 9.00000E+00    3.99174E+01
 9.50000E+00    4.84693E+01
 1.00000E+01    5.61276E+01
 1.05000E+01    6.25521E+01
 1.10000E+01    6.73199E+01
 1.15000E+01    7.08825E+01
 1.20000E+01    7.34822E+01
 1.25000E+01    7.40268E+01
 1.30000E+01    7.54527E+01
 1.35000E+01    7.64478E+01
 1.40000E+01    7.69300E+01
 1.45000E+01    7.71253E+01
 1.50000E+01    7.70761E+01
 1.55000E+01    7.68984E+01
 1.60000E+01    7.66725E+01
 1.65000E+01    7.64673E+01
 1.70000E+01    7.63301E+01
 1.75000E+01    7.61942E+01
 1.80000E+01    7.63163E+01
 1.85000E+01    7.65643E+01
 1.90000E+01    7.69764E+01
 1.95000E+01    7.76689E+01
 2.00000E+01    7.85485E+01
