# n + Eu152 : (n,n'16)  
# jendl4.0   N.Iwamoto                         EVAL-Nov09
# uncertainties: n
# # energies =    90
#   E(MeV)       xs(mb) 
 1.48842E-01    0.00000E+00
 1.49724E-01    3.60403E-04
 1.49748E-01    3.65500E-04
 1.50000E-01    4.15308E-04
 1.51688E-01    7.08160E-04
 1.59104E-01    2.32270E-03
 1.60000E-01    2.58698E-03
 1.61949E-01    3.22659E-03
 1.70000E-01    6.91769E-03
 1.76098E-01    1.09990E-02
 1.78866E-01    1.32560E-02
 1.80000E-01    1.42604E-02
 1.80120E-01    1.43695E-02
 1.81832E-01    1.59837E-02
 1.90000E-01    2.39623E-02
 1.93778E-01    2.85984E-02
 1.98221E-01    3.38862E-02
 2.00000E-01    3.63820E-02
 2.00991E-01    3.78308E-02
 2.02082E-01    3.94660E-02
 2.02467E-01    3.95366E-02
 2.04460E-01    4.19374E-02
 2.04532E-01    4.20336E-02
 2.13020E-01    5.53278E-02
 2.15784E-01    5.92706E-02
 2.15852E-01    5.93822E-02
 2.20917E-01    6.83659E-02
 2.22262E-01    7.07324E-02
 2.22678E-01    7.15123E-02
 2.22924E-01    7.19795E-02
 2.25000E-01    7.60239E-02
 2.25992E-01    7.80180E-02
 2.50000E-01    1.37135E-01
 2.75000E-01    2.21113E-01
 3.00000E-01    3.28766E-01
 4.00000E-01    8.08761E-01
 5.00000E-01    1.16717E+00
 6.00000E-01    1.40324E+00
 7.00000E-01    1.52833E+00
 8.00000E-01    1.57959E+00
 9.00000E-01    1.53050E+00
 1.00000E+00    1.46731E+00
 1.10000E+00    1.39608E+00
 1.20000E+00    1.30680E+00
 1.30000E+00    1.20370E+00
 1.40000E+00    1.10327E+00
 1.50000E+00    1.00839E+00
 1.60000E+00    9.19873E-01
 1.70000E+00    8.37803E-01
 1.80000E+00    7.61896E-01
 1.90000E+00    6.91721E-01
 2.00000E+00    6.26824E-01
 2.25000E+00    4.81859E-01
 2.50000E+00    3.68331E-01
 2.75000E+00    2.73114E-01
 3.00000E+00    2.00601E-01
 3.50000E+00    1.01842E-01
 4.00000E+00    4.97483E-02
 4.50000E+00    2.45818E-02
 5.00000E+00    1.29426E-02
 5.50000E+00    7.56163E-03
 6.00000E+00    5.05581E-03
 6.50000E+00    3.84111E-03
 7.00000E+00    3.20002E-03
 7.50000E+00    2.81679E-03
 8.00000E+00    2.55625E-03
 8.50000E+00    2.35708E-03
 9.00000E+00    2.19400E-03
 9.50000E+00    2.05724E-03
 1.00000E+01    1.93923E-03
 1.05000E+01    1.83574E-03
 1.10000E+01    1.74281E-03
 1.15000E+01    1.65796E-03
 1.20000E+01    1.57926E-03
 1.25000E+01    1.50528E-03
 1.30000E+01    1.43504E-03
 1.35000E+01    1.36809E-03
 1.40000E+01    1.30433E-03
 1.45000E+01    1.24385E-03
 1.50000E+01    1.18670E-03
 1.55000E+01    1.13710E-03
 1.60000E+01    1.09045E-03
 1.65000E+01    1.04661E-03
 1.70000E+01    1.00528E-03
 1.75000E+01    9.66274E-04
 1.80000E+01    9.29471E-04
 1.85000E+01    8.94755E-04
 1.90000E+01    8.61884E-04
 1.95000E+01    8.30643E-04
 2.00000E+01    8.00826E-04
