# n + Yb176 : (n,xn)    
# endfb8.0   S.Kunieda, A.Ichihara, K.Shibata+ EVAL-FEB10
# 
# # energies =    75
#   E(MeV)        xs(mb) 
 8.26008E-02    0.00000E+00
 9.00000E-02    1.22700E+02
 1.00000E-01    1.91500E+02
 1.20000E-01    3.10700E+02
 1.40000E-01    4.15400E+02
 1.60000E-01    5.10400E+02
 1.80000E-01    5.98700E+02
 2.00000E-01    6.81300E+02
 2.50000E-01    8.66000E+02
 2.73258E-01    9.38564E+02
 3.00000E-01    1.02499E+03
 3.50000E-01    1.16499E+03
 4.00000E-01    1.28955E+03
 4.50000E-01    1.40243E+03
 5.00000E-01    1.50432E+03
 5.50000E-01    1.59690E+03
 5.67937E-01    1.62725E+03
 6.00000E-01    1.68151E+03
 6.50000E-01    1.75979E+03
 7.00000E-01    1.83368E+03
 7.50000E-01    1.90269E+03
 8.00000E-01    1.96863E+03
 8.50000E-01    2.03055E+03
 9.00000E-01    2.08937E+03
 9.50000E-01    2.14531E+03
 9.59469E-01    2.15533E+03
 1.00000E+00    2.19823E+03
 1.05602E+00    2.22693E+03
 1.09444E+00    2.24663E+03
 1.13849E+00    2.29894E+03
 1.20000E+00    2.44757E+03
 1.20024E+00    2.44745E+03
 1.26813E+00    2.45591E+03
 1.29076E+00    2.48147E+03
 1.34879E+00    2.60751E+03
 1.40000E+00    2.78536E+03
 1.43920E+00    2.87482E+03
 1.43991E+00    2.87643E+03
 1.44997E+00    2.90234E+03
 1.60000E+00    3.29343E+03
 1.80000E+00    3.38645E+03
 2.00000E+00    3.43599E+03
 2.20000E+00    3.45866E+03
 2.40000E+00    3.46285E+03
 2.60000E+00    3.45633E+03
 2.80000E+00    3.44128E+03
 3.00000E+00    3.42099E+03
 3.25000E+00    3.39039E+03
 3.50000E+00    3.35808E+03
 3.75000E+00    3.32630E+03
 4.00000E+00    3.29714E+03
 4.25000E+00    3.27207E+03
 4.50000E+00    3.24979E+03
 4.75000E+00    3.22897E+03
 5.00000E+00    3.20834E+03
 5.50000E+00    3.16162E+03
 6.00000E+00    3.10941E+03
 6.50000E+00    3.05786E+03
 7.00000E+00    3.01082E+03
 7.50000E+00    3.36063E+03
 8.00000E+00    3.98415E+03
 8.50000E+00    4.36159E+03
 9.00000E+00    4.62142E+03
 9.50000E+00    4.74535E+03
 1.00000E+01    4.82679E+03
 1.10000E+01    4.89265E+03
 1.20000E+01    4.90730E+03
 1.30000E+01    4.90171E+03
 1.40000E+01    4.96172E+03
 1.50000E+01    5.31161E+03
 1.60000E+01    5.75385E+03
 1.70000E+01    6.08562E+03
 1.80000E+01    6.28987E+03
 1.90000E+01    6.40824E+03
 2.00000E+01    6.47473E+03
