# n + Dy160 : (n,xa)    
# jendl.ad   N.Iwamoto                         EVAL-Apr14
# 
# # energies =   114
#   E(MeV)        xs(mb) 
 8.73354E-02    1.28953E-05
 9.00000E-02    1.23219E-05
 1.00000E-01    1.15558E-05
 1.05000E-01    1.13373E-05
 1.10000E-01    1.11188E-05
 1.20000E-01    1.06812E-05
 1.30000E-01    1.03483E-05
 1.40000E-01    1.01084E-05
 1.50000E-01    9.95646E-06
 1.60000E-01    9.85447E-06
 1.70000E-01    9.81635E-06
 1.80000E-01    9.80844E-06
 1.90000E-01    9.85590E-06
 2.00000E-01    9.92622E-06
 2.25000E-01    1.04218E-05
 2.50000E-01    1.09109E-05
 2.75000E-01    1.14896E-05
 2.85612E-01    1.17540E-05
 3.00000E-01    1.21382E-05
 4.00000E-01    1.60560E-05
 5.00000E-01    2.20244E-05
 5.84727E-01    2.92893E-05
 6.00000E-01    3.06936E-05
 7.00000E-01    4.30936E-05
 8.00000E-01    6.06607E-05
 9.00000E-01    8.53464E-05
 9.72263E-01    1.09982E-04
 9.72948E-01    1.09374E-04
 1.00000E+00    1.14445E-04
 1.05572E+00    1.34613E-04
 1.10000E+00    1.46094E-04
 1.16313E+00    1.74862E-04
 1.20000E+00    1.90592E-04
 1.27273E+00    2.34611E-04
 1.28801E+00    2.39600E-04
 1.29371E+00    2.41260E-04
 1.29482E+00    2.40651E-04
 1.29483E+00    2.40645E-04
 1.29679E+00    2.39570E-04
 1.30000E+00    2.39531E-04
 1.35827E+00    2.66914E-04
 1.36724E+00    2.67501E-04
 1.39520E+00    2.73066E-04
 1.40000E+00    2.74021E-04
 1.40778E+00    2.76302E-04
 1.41735E+00    2.88880E-04
 1.43704E+00    2.95159E-04
 1.44761E+00    2.98984E-04
 1.46594E+00    3.06407E-04
 1.49889E+00    3.20092E-04
 1.50000E+00    3.19822E-04
 1.52800E+00    3.44334E-04
 1.53193E+00    3.44485E-04
 1.54483E+00    3.48843E-04
 1.56641E+00    3.56134E-04
 1.59675E+00    3.67841E-04
 1.60000E+00    3.69095E-04
 1.60443E+00    3.71317E-04
 1.61390E+00    3.92523E-04
 1.61697E+00    3.94012E-04
 1.61698E+00    3.94016E-04
 1.61800E+00    3.94511E-04
 1.62416E+00    3.97498E-04
 1.62747E+00    3.99103E-04
 1.65362E+00    4.13568E-04
 1.66128E+00    4.16473E-04
 1.66237E+00    4.16886E-04
 1.66409E+00    4.17539E-04
 1.66543E+00    4.18047E-04
 1.68667E+00    4.28433E-04
 1.70000E+00    4.34951E-04
 1.70505E+00    4.37420E-04
 1.71891E+00    4.65061E-04
 1.80000E+00    5.19667E-04
 1.90000E+00    6.22398E-04
 2.00000E+00    7.27880E-04
 2.25000E+00    1.01015E-03
 2.50000E+00    1.41238E-03
 2.75000E+00    1.89911E-03
 3.00000E+00    2.51903E-03
 3.50000E+00    4.16090E-03
 4.00000E+00    6.35069E-03
 4.50000E+00    8.98074E-03
 5.00000E+00    1.18988E-02
 5.50000E+00    1.49065E-02
 6.00000E+00    1.79329E-02
 6.50000E+00    2.10235E-02
 7.00000E+00    2.42374E-02
 7.50000E+00    2.84217E-02
 8.00000E+00    3.47032E-02
 8.50000E+00    4.47273E-02
 9.00000E+00    6.04551E-02
 9.50000E+00    8.35717E-02
 1.00000E+01    1.17820E-01
 1.05000E+01    1.67993E-01
 1.10000E+01    2.39263E-01
 1.15000E+01    3.37109E-01
 1.20000E+01    4.66102E-01
 1.25000E+01    6.29963E-01
 1.30000E+01    8.30235E-01
 1.35000E+01    1.06710E+00
 1.40000E+01    1.33855E+00
 1.45000E+01    1.64104E+00
 1.50000E+01    1.97162E+00
 1.55000E+01    2.32654E+00
 1.60000E+01    2.69721E+00
 1.65000E+01    3.08347E+00
 1.70000E+01    3.48088E+00
 1.75000E+01    3.88318E+00
 1.80000E+01    4.28917E+00
 1.85000E+01    4.69518E+00
 1.90000E+01    5.10120E+00
 1.95000E+01    5.50328E+00
 2.00000E+01    5.90141E+00
