# n + Dy160 : (n,t)m    
# jendl.ad   N.Iwamoto                         EVAL-Apr14
# uncertainties: n
# # energies =    25
#   E(MeV)       xs(mb) 
 7.23498E+00    0.00000E+00
 8.50000E+00    2.35500E-24
 9.00000E+00    1.52850E-18
 9.50000E+00    6.51750E-15
 1.00000E+01    1.96980E-12
 1.05000E+01    1.21600E-10
 1.10000E+01    2.70070E-09
 1.15000E+01    2.98130E-08
 1.20000E+01    2.02470E-07
 1.25000E+01    9.74030E-07
 1.30000E+01    2.49777E-06
 1.35000E+01    8.29732E-06
 1.40000E+01    2.32704E-05
 1.45000E+01    6.61684E-05
 1.50000E+01    1.34801E-04
 1.55000E+01    2.47004E-04
 1.60000E+01    4.15302E-04
 1.65000E+01    6.58483E-04
 1.70000E+01    9.72580E-04
 1.75000E+01    1.32211E-03
 1.80000E+01    1.79085E-03
 1.85000E+01    2.37595E-03
 1.90000E+01    2.87887E-03
 1.95000E+01    3.63345E-03
 2.00000E+01    4.30218E-03
