# n + Hg198 : (n,xa)    
# jendl4.0   K.SHIBATA, T.FUKAHORI, S.CHIBA,+  EVAL-SEP97
# 
# # energies =   107
#   E(MeV)        xs(mb) 
 4.13898E-01    1.14331E-08
 4.13900E-01    1.14331E-08
 4.20000E-01    1.15584E-08
 4.40000E-01    1.19690E-08
 4.60000E-01    1.23797E-08
 5.00000E-01    1.32010E-08
 6.00000E-01    2.91620E-08
 8.00000E-01    4.32070E-07
 1.00000E+00    2.28818E-06
 1.05380E+00    3.11240E-06
 1.05384E+00    3.11301E-06
 1.07836E+00    3.48865E-06
 1.09320E+00    3.71600E-06
 1.09324E+00    3.71662E-06
 1.10288E+00    3.86430E-06
 1.13243E+00    4.31701E-06
 1.15192E+00    4.61559E-06
 1.17162E+00    4.91740E-06
 1.25000E+00    6.11818E-06
 1.37500E+00    8.46314E-06
 1.40864E+00    9.09422E-06
 1.40870E+00    9.09534E-06
 1.42663E+00    9.43170E-06
 1.45435E+00    9.95172E-06
 1.50000E+00    1.08081E-05
 1.55639E+00    1.16148E-05
 1.62062E+00    1.25337E-05
 1.62500E+00    1.25964E-05
 1.64390E+00    1.28668E-05
 1.64393E+00    1.28672E-05
 1.68843E+00    1.35039E-05
 1.69188E+00    1.35532E-05
 1.69190E+00    1.35535E-05
 1.73041E+00    1.41044E-05
 1.73294E+00    1.41406E-05
 1.75000E+00    1.43847E-05
 1.76892E+00    1.46554E-05
 1.76897E+00    1.46561E-05
 1.82196E+00    1.54142E-05
 1.82505E+00    1.54584E-05
 1.84184E+00    1.56986E-05
 1.84420E+00    1.57324E-05
 1.84425E+00    1.57331E-05
 1.84595E+00    1.57574E-05
 1.85661E+00    1.59099E-05
 1.86827E+00    1.60767E-05
 1.87500E+00    1.61730E-05
 1.88318E+00    1.62900E-05
 1.90898E+00    1.66591E-05
 1.91109E+00    1.66893E-05
 1.91943E+00    1.68086E-05
 1.92054E+00    1.68245E-05
 1.92074E+00    1.68274E-05
 1.92212E+00    1.68471E-05
 2.00000E+00    1.79613E-05
 2.06250E+00    1.80383E-05
 2.12500E+00    1.81154E-05
 2.18750E+00    1.81924E-05
 2.25000E+00    1.82694E-05
 2.31250E+00    1.83464E-05
 2.37500E+00    1.84235E-05
 2.50000E+00    1.85775E-05
 2.62500E+00    2.98927E-05
 2.75000E+00    4.12080E-05
 2.87500E+00    5.25232E-05
 3.00000E+00    6.38385E-05
 3.12500E+00    9.66702E-05
 3.25000E+00    1.29502E-04
 3.37500E+00    1.62334E-04
 3.50000E+00    1.95165E-04
 3.62500E+00    2.27997E-04
 3.75000E+00    2.60829E-04
 4.00000E+00    3.26492E-04
 4.50000E+00    3.94569E-04
 5.00000E+00    4.62646E-04
 5.50000E+00    9.08298E-04
 6.00000E+00    1.35395E-03
 7.00000E+00    1.88703E-03
 8.00000E+00    2.42011E-03
 8.25000E+00    3.91096E-03
 8.50000E+00    5.40180E-03
 8.75000E+00    6.89264E-03
 9.00000E+00    8.38349E-03
 9.25000E+00    9.87433E-03
 9.50000E+00    1.13652E-02
 9.75000E+00    1.28560E-02
 1.00000E+01    1.43469E-02
 1.02500E+01    2.32625E-02
 1.05000E+01    3.21782E-02
 1.07500E+01    4.10939E-02
 1.10000E+01    5.00095E-02
 1.12500E+01    5.89252E-02
 1.15000E+01    6.78409E-02
 1.17500E+01    7.67565E-02
 1.20000E+01    8.56722E-02
 1.25000E+01    1.24817E-01
 1.30000E+01    1.63961E-01
 1.35000E+01    2.03106E-01
 1.40000E+01    2.42251E-01
 1.45000E+01    3.08735E-01
 1.50000E+01    3.75220E-01
 1.55000E+01    4.41704E-01
 1.60000E+01    5.08189E-01
 1.70000E+01    7.09119E-01
 1.80000E+01    9.10049E-01
 1.90000E+01    1.16018E+00
 2.00000E+01    1.41032E+00
