# n + Cs133 : (n,g)     
# jendl.ad   N.Iwamoto                         EVAL-Apr14
# uncertainties: n
# # energies =    69
#   E(MeV)       xs(mb) 
 1.00000E-10    2.00773E+05
 5.00000E-09    5.47432E+04
 1.00000E-08    4.15064E+04
 1.50000E-08    3.49096E+04
 2.00000E-08    3.07434E+04
 2.50000E-08    2.78021E+04
 3.00000E-08    2.55803E+04
 3.50000E-08    2.35453E+04
 4.20000E-08    2.15711E+04
 5.00000E-08    1.99286E+04
 5.80000E-08    1.85513E+04
 6.70000E-08    1.71553E+04
 8.00000E-08    1.55760E+04
 1.00000E-07    1.36306E+04
 1.40000E-07    1.18578E+04
 1.80000E-07    1.06787E+04
 2.20000E-07    9.90729E+03
 2.50000E-07    9.38702E+03
 2.80000E-07    9.01731E+03
 3.00000E-07    8.76185E+03
 3.20000E-07    8.47785E+03
 3.50000E-07    8.08928E+03
 4.00000E-07    7.52625E+03
 5.00000E-07    6.91485E+03
 6.25000E-07    6.40835E+03
 7.80000E-07    6.11497E+03
 8.50000E-07    5.98946E+03
 9.10000E-07    5.90764E+03
 9.50000E-07    5.86240E+03
 9.72000E-07    5.83229E+03
 9.96000E-07    5.80247E+03
 1.02000E-06    5.77450E+03
 1.04500E-06    5.74797E+03
 1.07100E-06    5.72289E+03
 1.09700E-06    5.69998E+03
 1.12300E-06    5.67931E+03
 1.15000E-06    5.62798E+03
 1.30000E-06    5.57717E+03
 1.50000E-06    5.70547E+03
 2.10000E-06    6.34078E+03
 2.60000E-06    7.87129E+03
 3.30000E-06    1.17763E+04
 4.00000E-06    3.95572E+05
 9.87700E-06    1.17459E+03
 1.59680E-05    4.70694E+04
 2.77000E-05    2.38835E+04
 4.80520E-05    1.35002E+03
 7.55014E-05    2.24219E+04
 1.48728E-04    8.05218E+03
 3.67262E-04    6.11187E+03
 9.06898E-04    3.22497E+03
 1.42510E-03    2.12352E+03
 2.23945E-03    1.85877E+03
 3.51910E-03    1.31368E+03
 5.53000E-03    1.19492E+03
 9.11800E-03    9.33477E+02
 1.50300E-02    7.23730E+02
 2.47800E-02    5.49043E+02
 4.08500E-02    4.06931E+02
 6.73400E-02    2.90913E+02
 1.11000E-01    1.98249E+02
 1.83000E-01    1.43699E+02
 3.02000E-01    1.18286E+02
 5.00000E-01    9.76267E+01
 8.21000E-01    5.06299E+01
 1.35300E+00    2.58972E+01
 2.23100E+00    1.61079E+01
 3.67900E+00    8.73897E+00
 6.06500E+00    1.96100E+00
