# n + Zn  0 : (n,xp)
# jendl.ad   N.Iwamoto                         EVAL-Apr14
#
# # energies =   112
#   E(MeV)          xs(mb) 
 1.05000E-01    3.58966E-05
 1.10000E-01    4.21832E-05
 1.20000E-01    5.47564E-05
 1.30000E-01    6.73297E-05
 1.40000E-01    7.99029E-05
 1.50000E-01    1.01704E-04
 1.60000E-01    1.27705E-04
 1.70000E-01    1.61569E-04
 1.80000E-01    1.97099E-04
 1.90000E-01    2.32630E-04
 2.00000E-01    2.68161E-04
 2.25000E-01    3.56988E-04
 2.50000E-01    4.45815E-04
 2.75000E-01    5.34643E-04
 3.00000E-01    6.23470E-04
 4.00000E-01    9.86167E-04
 5.00000E-01    1.52461E-03
 6.00000E-01    2.20422E-03
 7.00000E-01    2.96440E-03
 8.00000E-01    3.91148E-03
 9.00000E-01    1.10561E-02
 1.00000E+00    2.74512E-02
 1.00719E+00    2.91891E-02
 1.00720E+00    2.91916E-02
 1.10000E+00    4.12890E-02
 1.20000E+00    8.36377E-02
 1.30000E+00    1.68409E-01
 1.40000E+00    3.22223E-01
 1.50000E+00    5.88220E-01
 1.60000E+00    1.03317E+00
 1.70000E+00    1.74424E+00
 1.80000E+00    2.83626E+00
 1.82774E+00    3.22784E+00
 1.90000E+00    3.90274E+00
 1.94045E+00    4.55838E+00
 2.00000E+00    5.37757E+00
 2.25000E+00    1.26565E+01
 2.34310E+00    1.69840E+01
 2.50000E+00    2.59399E+01
 2.65060E+00    3.86690E+01
 2.75000E+00    4.82472E+01
 2.77971E+00    5.15985E+01
 2.83788E+00    5.81674E+01
 3.00000E+00    7.37328E+01
 3.02680E+00    7.73180E+01
 3.04569E+00    7.87483E+01
 3.05311E+00    7.91956E+01
 3.11966E+00    8.36961E+01
 3.12633E+00    8.40572E+01
 3.14341E+00    8.54291E+01
 3.23706E+00    9.47158E+01
 3.24724E+00    9.48211E+01
 3.25649E+00    9.52483E+01
 3.29112E+00    9.70696E+01
 3.31346E+00    9.86124E+01
 3.33683E+00    9.95429E+01
 3.34920E+00    1.00245E+02
 3.35902E+00    9.98407E+01
 3.35903E+00    9.98410E+01
 3.37421E+00    1.00351E+02
 3.41906E+00    1.01994E+02
 3.42299E+00    1.01818E+02
 3.46888E+00    1.03390E+02
 3.47919E+00    1.03858E+02
 3.50000E+00    1.03466E+02
 3.50677E+00    1.03827E+02
 3.51309E+00    1.04074E+02
 3.51967E+00    1.04314E+02
 3.55522E+00    1.06495E+02
 3.59453E+00    1.07768E+02
 3.60296E+00    1.08164E+02
 3.60835E+00    1.08386E+02
 3.64360E+00    1.10639E+02
 3.65396E+00    1.11207E+02
 3.65883E+00    1.11448E+02
 3.66340E+00    1.11657E+02
 3.67783E+00    1.12408E+02
 3.68423E+00    1.12730E+02
 3.68565E+00    1.12782E+02
 4.00000E+00    1.25894E+02
 4.50000E+00    1.42646E+02
 5.00000E+00    1.68661E+02
 5.50000E+00    1.84258E+02
 6.00000E+00    1.97226E+02
 6.50000E+00    2.07939E+02
 7.00000E+00    2.17234E+02
 7.50000E+00    2.25378E+02
 8.00000E+00    2.29380E+02
 8.50000E+00    2.37564E+02
 9.00000E+00    2.45286E+02
 9.50000E+00    2.53482E+02
 1.00000E+01    2.69272E+02
 1.05000E+01    3.02646E+02
 1.10000E+01    3.54492E+02
 1.15000E+01    4.16330E+02
 1.20000E+01    4.80331E+02
 1.25000E+01    5.37931E+02
 1.30000E+01    5.77940E+02
 1.35000E+01    6.04363E+02
 1.40000E+01    6.24615E+02
 1.45000E+01    6.35827E+02
 1.50000E+01    6.49510E+02
 1.55000E+01    6.61979E+02
 1.60000E+01    6.73506E+02
 1.65000E+01    6.82277E+02
 1.70000E+01    6.90050E+02
 1.75000E+01    6.95484E+02
 1.80000E+01    6.99952E+02
 1.85000E+01    7.02469E+02
 1.90000E+01    7.05010E+02
 1.95000E+01    7.06432E+02
 2.00000E+01    7.08186E+02
