# n + Sr  0 : (n,xa)
# jendl4.0   K.Shibata, A.Ichihara, S.Kunieda  EVAL-AUG09
#
# # energies =    59
#   E(MeV)          xs(mb) 
 3.93041E-01    0.00000E+00
 4.00000E-01    0.00000E+00
 5.00000E-01    0.00000E+00
 6.00000E-01    0.00000E+00
 7.00000E-01    0.00000E+00
 8.00000E-01    0.00000E+00
 8.83478E-01    0.00000E+00
 9.00000E-01    0.00000E+00
 1.00000E+00    0.00000E+00
 1.24268E+00    0.00000E+00
 1.26850E+00    0.00000E+00
 1.50000E+00    0.00000E+00
 1.76019E+00    0.00000E+00
 1.76222E+00    0.00000E+00
 1.79102E+00    0.00000E+00
 1.94278E+00    0.00000E+00
 2.00000E+00    0.00000E+00
 2.13455E+00    0.00000E+00
 2.17849E+00    0.00000E+00
 2.19459E+00    0.00000E+00
 2.26165E+00    0.00000E+00
 2.28825E+00    0.00000E+00
 2.44254E+00    0.00000E+00
 2.44849E+00    0.00000E+00
 2.50000E+00    0.00000E+00
 2.51688E+00    8.82917E-08
 2.56220E+00    3.25397E-07
 2.56574E+00    3.43918E-07
 2.56847E+00    3.58212E-07
 2.57960E+00    4.16426E-07
 2.58465E+00    4.42887E-07
 2.62613E+00    6.59882E-07
 2.63625E+00    7.12810E-07
 3.00000E+00    2.61590E-06
 3.50000E+00    2.17518E-05
 4.00000E+00    1.88132E-04
 4.50000E+00    6.73512E-04
 5.00000E+00    1.79720E-03
 5.50000E+00    3.95644E-03
 6.00000E+00    7.30823E-03
 6.50000E+00    1.18452E-02
 7.00000E+00    1.99778E-02
 7.50000E+00    3.14087E-02
 8.00000E+00    3.92144E-02
 8.50000E+00    5.15641E-02
 9.00000E+00    6.67313E-02
 9.50000E+00    8.33105E-02
 1.00000E+01    2.10530E-01
 1.10000E+01    2.65365E-01
 1.20000E+01    5.41105E-01
 1.30000E+01    1.05256E+00
 1.40000E+01    2.01861E+00
 1.45000E+01    2.82722E+00
 1.50000E+01    3.66629E+00
 1.60000E+01    6.17447E+00
 1.70000E+01    9.53286E+00
 1.80000E+01    1.35874E+01
 1.90000E+01    1.81132E+01
 2.00000E+01    2.28946E+01
