# n + Ag107 : (n,n'02)  
# jendl4.0   N.Iwamoto,K.Shibata               EVAL-Dec09
# uncertainties: n
# # energies =    84
#   E(MeV)       xs(mb) 
 1.26775E-01    0.00000E+00
 1.30000E-01    1.78658E-01
 1.40000E-01    7.23385E-01
 1.50000E-01    1.32055E+00
 1.60000E-01    1.92687E+00
 1.70000E-01    2.55144E+00
 1.80000E-01    3.20386E+00
 1.90000E-01    3.86922E+00
 2.00000E-01    4.58119E+00
 2.25000E-01    6.49753E+00
 2.50000E-01    8.65339E+00
 2.75000E-01    1.09949E+01
 3.00000E-01    1.35478E+01
 3.27875E-01    1.67448E+01
 4.00000E-01    2.35509E+01
 4.27142E-01    2.64305E+01
 5.00000E-01    3.10774E+01
 6.00000E-01    3.93224E+01
 7.00000E-01    4.87061E+01
 7.80606E-01    5.69075E+01
 7.94012E-01    5.82753E+01
 8.00000E-01    5.86823E+01
 9.00000E-01    6.77181E+01
 9.30760E-01    7.06583E+01
 9.58661E-01    7.23724E+01
 9.82483E-01    7.27100E+01
 1.00000E+00    7.24307E+01
 1.00035E+00    7.24279E+01
 1.07121E+00    7.23473E+01
 1.10000E+00    7.18784E+01
 1.15278E+00    7.19004E+01
 1.15384E+00    7.19049E+01
 1.15772E+00    7.17345E+01
 1.20000E+00    7.07283E+01
 1.23353E+00    7.00394E+01
 1.23455E+00    7.00232E+01
 1.27077E+00    6.89777E+01
 1.30000E+00    6.81013E+01
 1.33831E+00    6.72125E+01
 1.40000E+00    6.59697E+01
 1.50000E+00    6.50792E+01
 1.60000E+00    6.31390E+01
 1.70000E+00    6.06112E+01
 1.80000E+00    5.78616E+01
 1.90000E+00    5.51759E+01
 2.00000E+00    5.24838E+01
 2.25000E+00    4.20606E+01
 2.50000E+00    3.50305E+01
 2.75000E+00    2.75829E+01
 3.00000E+00    2.08556E+01
 3.50000E+00    1.17837E+01
 4.00000E+00    6.44430E+00
 4.50000E+00    3.44533E+00
 5.00000E+00    1.81675E+00
 5.50000E+00    9.57402E-01
 6.00000E+00    5.14871E-01
 6.50000E+00    2.92781E-01
 7.00000E+00    1.82298E-01
 7.50000E+00    1.26325E-01
 8.00000E+00    9.67902E-02
 8.50000E+00    8.02227E-02
 9.00000E+00    7.02696E-02
 9.50000E+00    6.38120E-02
 1.00000E+01    5.92503E-02
 1.05000E+01    5.57515E-02
 1.10000E+01    5.27948E-02
 1.15000E+01    5.01813E-02
 1.20000E+01    4.78150E-02
 1.25000E+01    4.56232E-02
 1.30000E+01    4.36087E-02
 1.35000E+01    4.17465E-02
 1.40000E+01    4.00348E-02
 1.45000E+01    3.84053E-02
 1.50000E+01    3.69081E-02
 1.55000E+01    3.53848E-02
 1.60000E+01    3.40003E-02
 1.65000E+01    3.25898E-02
 1.70000E+01    3.12599E-02
 1.75000E+01    2.99090E-02
 1.80000E+01    2.86945E-02
 1.85000E+01    2.74948E-02
 1.90000E+01    2.63770E-02
 1.95000E+01    2.52774E-02
 2.00000E+01    2.42667E-02
