# n + Sm151 : (n,n'09)  
# jendl4.0   N.Iwamoto,A.Zukeran,K.Shibata     EVAL-Nov09
# uncertainties: n
# # energies =    94
#   E(MeV)       xs(mb) 
 1.76552E-01    0.00000E+00
 1.80000E-01    2.66125E+01
 1.90000E-01    4.45503E+01
 2.00000E-01    5.68095E+01
 2.10388E-01    6.77596E+01
 2.21470E-01    7.46684E+01
 2.25000E-01    7.68705E+01
 2.50000E-01    9.42959E+01
 2.62875E-01    1.02678E+02
 2.75000E-01    1.05866E+02
 2.86854E-01    1.11334E+02
 2.96790E-01    1.15832E+02
 3.00000E-01    1.13490E+02
 3.04642E-01    1.14012E+02
 3.08840E-01    1.13102E+02
 3.15948E-01    1.14269E+02
 3.17387E-01    1.14552E+02
 3.26109E-01    1.16655E+02
 3.47214E-01    1.18597E+02
 3.58027E-01    1.20803E+02
 3.60393E-01    1.21303E+02
 3.85761E-01    1.26283E+02
 3.98225E-01    1.28909E+02
 4.00000E-01    1.29037E+02
 4.08210E-01    1.30575E+02
 4.18418E-01    1.32640E+02
 4.21901E-01    1.32104E+02
 4.26008E-01    1.32390E+02
 4.40424E-01    1.31510E+02
 4.48176E-01    1.31624E+02
 4.48659E-01    1.31649E+02
 4.51578E-01    1.31593E+02
 4.73554E-01    1.33014E+02
 4.93617E-01    1.33430E+02
 5.00000E-01    1.32687E+02
 5.05627E-01    1.32803E+02
 5.05687E-01    1.32666E+02
 5.08677E-01    1.32052E+02
 5.24633E-01    1.31810E+02
 5.33744E-01    1.32171E+02
 5.35364E-01    1.31947E+02
 6.00000E-01    1.34246E+02
 7.00000E-01    1.30030E+02
 8.00000E-01    1.21676E+02
 9.00000E-01    1.11469E+02
 1.00000E+00    1.03441E+02
 1.10000E+00    9.57132E+01
 1.20000E+00    8.90431E+01
 1.30000E+00    8.27108E+01
 1.40000E+00    7.73396E+01
 1.50000E+00    7.28258E+01
 1.60000E+00    6.90559E+01
 1.70000E+00    6.59195E+01
 1.80000E+00    6.33298E+01
 1.90000E+00    6.11987E+01
 2.00000E+00    5.94488E+01
 2.25000E+00    5.62335E+01
 2.50000E+00    5.44020E+01
 2.75000E+00    5.31824E+01
 3.00000E+00    5.23340E+01
 3.50000E+00    5.10460E+01
 4.00000E+00    4.97187E+01
 4.50000E+00    4.81407E+01
 5.00000E+00    4.64663E+01
 5.50000E+00    4.48973E+01
 6.00000E+00    4.35427E+01
 6.50000E+00    4.24072E+01
 7.00000E+00    4.13930E+01
 7.50000E+00    4.04085E+01
 8.00000E+00    3.93870E+01
 8.50000E+00    3.83011E+01
 9.00000E+00    3.71663E+01
 9.50000E+00    3.60108E+01
 1.00000E+01    3.48714E+01
 1.05000E+01    3.37805E+01
 1.10000E+01    3.27584E+01
 1.15000E+01    3.18129E+01
 1.20000E+01    3.09412E+01
 1.25000E+01    3.01332E+01
 1.30000E+01    2.93771E+01
 1.35000E+01    2.86616E+01
 1.40000E+01    2.79786E+01
 1.45000E+01    2.73234E+01
 1.50000E+01    2.66947E+01
 1.55000E+01    2.60930E+01
 1.60000E+01    2.55205E+01
 1.65000E+01    2.49800E+01
 1.70000E+01    2.44740E+01
 1.75000E+01    2.40043E+01
 1.80000E+01    2.35718E+01
 1.85000E+01    2.31756E+01
 1.90000E+01    2.28137E+01
 1.95000E+01    2.24830E+01
 2.00000E+01    2.21804E+01
