# n + Rb 85 : (n,n'08)  
# jendl4.0   K.Shibata, A.Ichihara, S.Kunieda  EVAL-AUG09
# uncertainties: n
# # energies =    31
#   E(MeV)       xs(mb) 
 9.30635E-01    0.00000E+00
 1.00000E+00    6.61000E+01
 1.50000E+00    1.77900E+02
 2.00000E+00    1.34200E+02
 2.50000E+00    1.10700E+02
 3.00000E+00    8.14300E+01
 3.50000E+00    5.84400E+01
 4.00000E+00    3.68600E+01
 4.50000E+00    2.30500E+01
 5.00000E+00    1.36900E+01
 5.50000E+00    8.29400E+00
 6.00000E+00    5.09300E+00
 6.50000E+00    3.34800E+00
 7.00000E+00    2.29900E+00
 7.50000E+00    1.74200E+00
 8.00000E+00    1.35900E+00
 8.50000E+00    1.16900E+00
 9.00000E+00    9.99000E-01
 9.50000E+00    9.22700E-01
 1.00000E+01    8.22000E-01
 1.10000E+01    7.09100E-01
 1.20000E+01    6.25700E-01
 1.30000E+01    5.63200E-01
 1.40000E+01    5.13400E-01
 1.45000E+01    4.74500E-01
 1.50000E+01    4.67400E-01
 1.60000E+01    4.24700E-01
 1.70000E+01    3.86100E-01
 1.80000E+01    3.51900E-01
 1.90000E+01    3.02700E-01
 2.00000E+01    2.79200E-01
