# n + Dy158 : (n,xn)    
# jendl.ad   N.Iwamoto                         EVAL-Apr14
# 
# # energies =    98
#   E(MeV)        xs(mb) 
 9.95498E-02    0.00000E+00
 1.00000E-01    2.49069E+01
 1.05000E-01    6.03991E+01
 1.10000E-01    9.58928E+01
 1.20000E-01    1.62437E+02
 1.30000E-01    2.25053E+02
 1.40000E-01    2.82974E+02
 1.50000E-01    3.36662E+02
 1.60000E-01    3.84585E+02
 1.70000E-01    4.29558E+02
 1.80000E-01    4.71189E+02
 1.90000E-01    5.10047E+02
 2.00000E-01    5.47194E+02
 2.25000E-01    6.30312E+02
 2.50000E-01    7.02277E+02
 2.75000E-01    7.68348E+02
 3.00000E-01    8.30480E+02
 3.19165E-01    8.71570E+02
 4.00000E-01    1.03299E+03
 5.00000E-01    1.19473E+03
 6.00000E-01    1.33103E+03
 6.41785E-01    1.38187E+03
 7.00000E-01    1.44865E+03
 8.00000E-01    1.55038E+03
 9.00000E-01    1.63743E+03
 9.52364E-01    1.67706E+03
 9.96856E-01    1.78195E+03
 9.96857E-01    1.78195E+03
 1.00000E+00    1.80333E+03
 1.05056E+00    1.90190E+03
 1.05127E+00    1.90296E+03
 1.09251E+00    1.98508E+03
 1.10000E+00    2.01556E+03
 1.17118E+00    2.13791E+03
 1.20000E+00    2.17507E+03
 1.27710E+00    2.24937E+03
 1.27711E+00    2.24936E+03
 1.28818E+00    2.26883E+03
 1.30000E+00    2.28200E+03
 1.32318E+00    2.30402E+03
 1.37070E+00    2.34185E+03
 1.38049E+00    2.36024E+03
 1.40000E+00    2.39757E+03
 1.40609E+00    2.40497E+03
 1.45096E+00    2.45800E+03
 1.48643E+00    2.50367E+03
 1.49584E+00    2.51267E+03
 1.50000E+00    2.51643E+03
 1.51071E+00    2.52507E+03
 1.52321E+00    2.53426E+03
 1.52815E+00    2.53802E+03
 1.52981E+00    2.54013E+03
 1.53783E+00    2.54682E+03
 1.55720E+00    2.56068E+03
 1.56896E+00    2.56828E+03
 1.60000E+00    2.59076E+03
 1.70000E+00    2.65145E+03
 1.80000E+00    2.71128E+03
 1.90000E+00    2.76412E+03
 2.00000E+00    2.81080E+03
 2.25000E+00    2.86861E+03
 2.50000E+00    2.93015E+03
 2.75000E+00    2.95043E+03
 3.00000E+00    2.98042E+03
 3.50000E+00    2.99939E+03
 4.00000E+00    2.99730E+03
 4.50000E+00    2.97856E+03
 5.00000E+00    2.95066E+03
 5.50000E+00    2.92078E+03
 6.00000E+00    2.89254E+03
 6.50000E+00    2.86619E+03
 7.00000E+00    2.84148E+03
 7.50000E+00    2.81776E+03
 8.00000E+00    2.79449E+03
 8.50000E+00    2.77145E+03
 9.00000E+00    2.74866E+03
 9.50000E+00    2.78763E+03
 1.00000E+01    3.13680E+03
 1.05000E+01    3.55931E+03
 1.10000E+01    3.90094E+03
 1.15000E+01    4.14234E+03
 1.20000E+01    4.28648E+03
 1.25000E+01    4.39180E+03
 1.30000E+01    4.45648E+03
 1.35000E+01    4.49964E+03
 1.40000E+01    4.52370E+03
 1.45000E+01    4.53857E+03
 1.50000E+01    4.54390E+03
 1.55000E+01    4.54425E+03
 1.60000E+01    4.54044E+03
 1.65000E+01    4.53407E+03
 1.70000E+01    4.53230E+03
 1.75000E+01    4.55151E+03
 1.80000E+01    4.60460E+03
 1.85000E+01    4.67910E+03
 1.90000E+01    4.77877E+03
 1.95000E+01    4.87895E+03
 2.00000E+01    4.98015E+03
