# n + Os187 : (n,n'08)  
# jendl4.0   N.Iwamoto                         EVAL-Jan10
# uncertainties: n
# # energies =    86
#   E(MeV)       xs(mb) 
 2.58557E-01    0.00000E+00
 2.64721E-01    1.25980E-03
 2.75000E-01    3.64064E-03
 3.00000E-01    1.94206E-02
 3.35058E-01    7.67228E-02
 3.43342E-01    9.72885E-02
 3.51888E-01    1.19003E-01
 4.00000E-01    3.15677E-01
 4.21261E-01    4.41656E-01
 4.44385E-01    6.03557E-01
 4.47441E-01    6.27597E-01
 4.61979E-01    7.46706E-01
 4.66503E-01    7.83166E-01
 5.00000E-01    1.11056E+00
 5.04155E-01    1.15714E+00
 5.10962E-01    1.23287E+00
 5.14360E-01    1.26570E+00
 5.39455E-01    1.54452E+00
 5.59905E-01    1.79755E+00
 5.89473E-01    2.11330E+00
 5.99668E-01    2.24898E+00
 6.00000E-01    2.25297E+00
 6.14296E-01    2.46117E+00
 6.21334E-01    2.56704E+00
 6.45333E-01    2.95508E+00
 6.67713E-01    3.29535E+00
 6.73615E-01    3.37897E+00
 6.87690E-01    3.58514E+00
 6.88193E-01    3.59150E+00
 7.00000E-01    3.76768E+00
 7.15067E-01    4.00466E+00
 7.29656E-01    4.22867E+00
 7.31023E-01    4.24894E+00
 7.49019E-01    4.54191E+00
 7.61084E-01    4.74716E+00
 8.00000E-01    5.25942E+00
 9.00000E-01    6.85234E+00
 1.00000E+00    7.78295E+00
 1.10000E+00    8.48713E+00
 1.20000E+00    8.99960E+00
 1.30000E+00    9.23206E+00
 1.40000E+00    9.15863E+00
 1.50000E+00    8.91727E+00
 1.60000E+00    8.55284E+00
 1.70000E+00    8.10483E+00
 1.80000E+00    7.60380E+00
 1.90000E+00    7.07360E+00
 2.00000E+00    6.53467E+00
 2.25000E+00    5.31689E+00
 2.50000E+00    4.07352E+00
 2.75000E+00    3.12759E+00
 3.00000E+00    2.42583E+00
 3.50000E+00    1.34683E+00
 4.00000E+00    7.36748E-01
 4.50000E+00    4.12694E-01
 5.00000E+00    2.48782E-01
 5.50000E+00    1.67312E-01
 6.00000E+00    1.26297E-01
 6.50000E+00    1.04412E-01
 7.00000E+00    9.17461E-02
 7.50000E+00    8.35541E-02
 8.00000E+00    7.77301E-02
 8.50000E+00    7.31996E-02
 9.00000E+00    6.94028E-02
 9.50000E+00    6.59816E-02
 1.00000E+01    6.27524E-02
 1.05000E+01    5.96286E-02
 1.10000E+01    5.66183E-02
 1.15000E+01    5.37344E-02
 1.20000E+01    5.10012E-02
 1.25000E+01    4.84372E-02
 1.30000E+01    4.60534E-02
 1.35000E+01    4.38501E-02
 1.40000E+01    4.18201E-02
 1.45000E+01    3.99502E-02
 1.50000E+01    3.82225E-02
 1.55000E+01    3.66182E-02
 1.60000E+01    3.51184E-02
 1.65000E+01    3.37066E-02
 1.70000E+01    3.23655E-02
 1.75000E+01    3.10826E-02
 1.80000E+01    2.98585E-02
 1.85000E+01    2.86908E-02
 1.90000E+01    2.75886E-02
 1.95000E+01    2.65477E-02
 2.00000E+01    2.55668E-02
