# n + Ba137 : (n,xa)    
# jendl.ad   N.Iwamoto                         EVAL-Apr14
# 
# # energies =   100
#   E(MeV)        xs(mb) 
 1.05000E-01    2.19946E-04
 1.10000E-01    2.17712E-04
 1.20000E-01    2.13795E-04
 1.30000E-01    2.10370E-04
 1.40000E-01    2.07752E-04
 1.50000E-01    2.05216E-04
 1.60000E-01    2.03642E-04
 1.70000E-01    2.04407E-04
 1.80000E-01    2.05172E-04
 1.90000E-01    2.06412E-04
 2.00000E-01    2.07653E-04
 2.25000E-01    2.10946E-04
 2.50000E-01    2.14622E-04
 2.75000E-01    2.25402E-04
 2.85629E-01    2.30014E-04
 3.00000E-01    2.24005E-04
 4.00000E-01    2.54679E-04
 5.00000E-01    3.27796E-04
 6.00000E-01    4.14347E-04
 6.66534E-01    4.93559E-04
 7.00000E-01    4.93691E-04
 8.00000E-01    6.09833E-04
 9.00000E-01    7.61439E-04
 9.13682E-01    7.85106E-04
 1.00000E+00    9.49958E-04
 1.05169E+00    1.07813E-03
 1.10000E+00    1.20793E-03
 1.20000E+00    1.53264E-03
 1.26104E+00    1.76811E-03
 1.30000E+00    1.82701E-03
 1.30343E+00    1.83760E-03
 1.40000E+00    2.05919E-03
 1.47458E+00    2.35385E-03
 1.49272E+00    2.40062E-03
 1.50000E+00    2.40656E-03
 1.60000E+00    2.74967E-03
 1.70000E+00    3.24845E-03
 1.80000E+00    3.90056E-03
 1.81091E+00    3.97713E-03
 1.85114E+00    4.21527E-03
 1.87068E+00    4.32249E-03
 1.90000E+00    4.48811E-03
 1.90594E+00    4.52452E-03
 1.91339E+00    4.54855E-03
 1.92157E+00    4.57494E-03
 2.00000E+00    4.99377E-03
 2.05644E+00    5.41051E-03
 2.06248E+00    5.44046E-03
 2.13260E+00    5.92297E-03
 2.19830E+00    6.45214E-03
 2.24532E+00    6.85656E-03
 2.24593E+00    6.85604E-03
 2.25000E+00    6.88410E-03
 2.28773E+00    7.23779E-03
 2.32803E+00    7.61557E-03
 2.35724E+00    7.88555E-03
 2.36127E+00    7.92121E-03
 2.36641E+00    7.96432E-03
 2.37296E+00    8.01925E-03
 2.39048E+00    8.16617E-03
 2.42554E+00    8.47902E-03
 2.44488E+00    8.65160E-03
 2.45677E+00    8.75770E-03
 2.50000E+00    9.23279E-03
 2.75000E+00    1.29259E-02
 3.00000E+00    1.70676E-02
 3.50000E+00    2.96944E-02
 4.00000E+00    4.76847E-02
 4.50000E+00    6.97802E-02
 5.00000E+00    9.40621E-02
 5.50000E+00    1.19899E-01
 6.00000E+00    1.44115E-01
 6.50000E+00    1.72927E-01
 7.00000E+00    2.04474E-01
 7.50000E+00    2.40726E-01
 8.00000E+00    2.83258E-01
 8.50000E+00    3.34710E-01
 9.00000E+00    3.97217E-01
 9.50000E+00    4.74946E-01
 1.00000E+01    5.72045E-01
 1.05000E+01    6.93631E-01
 1.10000E+01    8.43528E-01
 1.15000E+01    1.02147E+00
 1.20000E+01    1.23111E+00
 1.25000E+01    1.46841E+00
 1.30000E+01    1.73048E+00
 1.35000E+01    2.01420E+00
 1.40000E+01    2.31658E+00
 1.45000E+01    2.63491E+00
 1.50000E+01    2.96670E+00
 1.55000E+01    3.30696E+00
 1.60000E+01    3.65793E+00
 1.65000E+01    4.01549E+00
 1.70000E+01    4.37556E+00
 1.75000E+01    4.73132E+00
 1.80000E+01    5.08855E+00
 1.85000E+01    5.45269E+00
 1.90000E+01    5.80946E+00
 1.95000E+01    6.17245E+00
 2.00000E+01    6.53541E+00
