# n + In  0 : (n,xp)
# jendl4.0   S.Kunieda, A.Ichihara, K.Shibata+ EVAL-FEB22
#
# # energies =    71
#   E(MeV)          xs(mb) 
 3.39192E-01    0.00000E+00
 3.50000E-01    0.00000E+00
 4.00000E-01    1.62419E-13
 4.50000E-01    4.07807E-13
 5.00000E-01    1.01416E-12
 5.50000E-01    2.49120E-12
 6.00000E-01    6.04032E-12
 6.02382E-01    6.43803E-12
 6.50000E-01    1.43887E-11
 7.00000E-01    2.72587E-11
 7.50000E-01    5.88588E-11
 8.00000E-01    1.27156E-10
 8.35854E-01    2.31657E-10
 8.50000E-01    2.72887E-10
 8.71716E-01    4.08139E-10
 9.00000E-01    5.84298E-10
 9.41977E-01    1.14075E-09
 9.49694E-01    1.24305E-09
 9.50000E-01    1.24710E-09
 1.00000E+00    2.64436E-09
 1.05064E+00    1.05894E-08
 1.08766E+00    1.63979E-08
 1.14251E+00    2.50036E-08
 1.20000E+00    3.40240E-08
 1.20297E+00    3.78187E-08
 1.29870E+00    1.60096E-07
 1.30192E+00    1.64209E-07
 1.35933E+00    2.37540E-07
 1.40000E+00    2.89489E-07
 1.43070E+00    5.59691E-07
 1.46150E+00    8.30774E-07
 1.47615E+00    9.59714E-07
 1.48290E+00    1.01912E-06
 1.49148E+00    1.09464E-06
 1.50157E+00    1.18344E-06
 1.60000E+00    2.04976E-06
 1.80000E+00    8.00089E-06
 2.00000E+00    2.41413E-05
 2.20000E+00    5.93547E-05
 2.40000E+00    1.26375E-04
 2.60000E+00    2.46332E-04
 2.80000E+00    4.51232E-04
 3.00000E+00    7.88549E-04
 3.25000E+00    1.51253E-03
 3.50000E+00    2.84635E-03
 3.75000E+00    5.14558E-03
 4.00000E+00    8.92421E-03
 4.25000E+00    1.49836E-02
 4.50000E+00    2.33749E-02
 4.75000E+00    3.57015E-02
 5.00000E+00    4.98756E-02
 5.50000E+00    8.87902E-02
 6.00000E+00    1.37907E-01
 6.50000E+00    1.98673E-01
 7.00000E+00    2.86003E-01
 7.50000E+00    4.23279E-01
 8.00000E+00    6.49976E-01
 8.50000E+00    1.01263E+00
 9.00000E+00    1.55050E+00
 9.50000E+00    2.32948E+00
 1.00000E+01    3.38566E+00
 1.10000E+01    6.47620E+00
 1.20000E+01    1.10904E+01
 1.30000E+01    1.74110E+01
 1.40000E+01    2.55099E+01
 1.50000E+01    3.56087E+01
 1.60000E+01    4.76185E+01
 1.70000E+01    6.13561E+01
 1.80000E+01    7.67323E+01
 1.90000E+01    9.37396E+01
 2.00000E+01    1.12344E+02
