# n + Mo 97 : (n,tot)   
# jendl4.0   K.Shibata, A.Ichihara, S.Kunieda+ EVAL-MAR09
# uncertainties: n
# # energies =   171
#   E(MeV)       xs(mb) 
 1.00000E-11    3.84803E+04
 1.00000E-07    7.41539E+03
 4.13990E-07    7.08860E+03
 5.31580E-07    7.01722E+03
 6.82560E-07    6.95320E+03
 8.76420E-07    6.89556E+03
 1.12540E-06    6.84400E+03
 1.44500E-06    6.79671E+03
 1.85540E-06    6.75427E+03
 2.37240E-06    6.71079E+03
 3.05900E-06    6.66902E+03
 3.92790E-06    6.62905E+03
 5.04350E-06    6.58430E+03
 6.47600E-06    6.54431E+03
 8.31530E-06    6.49469E+03
 1.06770E-05    6.44730E+03
 1.37100E-05    6.47114E+03
 1.76030E-05    6.33319E+03
 2.26030E-05    6.26117E+03
 2.92030E-05    6.18519E+03
 3.72670E-05    6.09431E+03
 4.78510E-05    6.05831E+03
 6.14420E-05    2.74612E+04
 7.88930E-05    6.36896E+03
 1.01300E-04    6.31925E+03
 1.30070E-04    6.35801E+03
 1.67020E-04    5.89230E+03
 2.14450E-04    8.17471E+03
 2.75360E-04    1.56130E+04
 3.53580E-04    1.02242E+04
 4.54000E-04    2.38285E+04
 5.82950E-04    1.36505E+04
 7.48520E-04    1.23198E+04
 9.61120E-04    9.41655E+03
 1.23410E-03    1.26110E+04
 1.58460E-03    1.17101E+04
 2.03470E-03    1.01978E+04
 2.24870E-03    1.00495E+04
 2.48520E-03    9.92862E+03
 2.61260E-03    9.84254E+03
 2.74650E-03    9.70507E+03
 3.03540E-03    9.56137E+03
 3.35460E-03    9.43984E+03
 3.70740E-03    9.27938E+03
 4.30740E-03    9.07662E+03
 5.53080E-03    8.86916E+03
 7.10170E-03    8.71772E+03
 9.11880E-03    8.62739E+03
 1.17090E-02    8.60485E+03
 1.50340E-02    8.58293E+03
 1.93050E-02    8.57372E+03
 2.18750E-02    8.59534E+03
 2.35790E-02    8.60786E+03
 2.41760E-02    8.61439E+03
 2.47880E-02    8.62451E+03
 2.60580E-02    8.63648E+03
 2.70000E-02    8.64963E+03
 2.85000E-02    8.67641E+03
 3.18280E-02    8.71307E+03
 3.43070E-02    8.76985E+03
 4.08680E-02    8.84438E+03
 4.63090E-02    8.91336E+03
 5.24750E-02    8.97052E+03
 5.65620E-02    9.04622E+03
 6.73790E-02    9.12025E+03
 7.20000E-02    9.16950E+03
 7.95000E-02    9.21058E+03
 8.25000E-02    9.23410E+03
 8.65170E-02    9.28247E+03
 9.80370E-02    9.33222E+03
 1.11090E-01    9.34551E+03
 1.16790E-01    9.35327E+03
 1.22770E-01    9.36144E+03
 1.29070E-01    9.37003E+03
 1.35690E-01    9.37905E+03
 1.42640E-01    9.38854E+03
 1.49960E-01    9.39851E+03
 1.57640E-01    9.40900E+03
 1.65730E-01    9.42002E+03
 1.74220E-01    9.43161E+03
 1.83160E-01    9.44379E+03
 1.92550E-01    9.45544E+03
 2.02420E-01    9.43980E+03
 2.12800E-01    9.41138E+03
 2.23710E-01    9.38151E+03
 2.35180E-01    9.35010E+03
 2.47240E-01    9.29974E+03
 2.73240E-01    9.24590E+03
 2.87250E-01    9.21738E+03
 2.94520E-01    9.20406E+03
 2.97200E-01    9.19874E+03
 2.98500E-01    9.19152E+03
 3.01970E-01    9.12054E+03
 3.33730E-01    8.98309E+03
 3.68830E-01    8.87109E+03
 3.87740E-01    8.79130E+03
 4.07620E-01    8.66273E+03
 4.50490E-01    8.46532E+03
 4.97870E-01    8.29903E+03
 5.23400E-01    8.16977E+03
 5.50230E-01    8.08371E+03
 5.78440E-01    8.00753E+03
 6.08100E-01    7.88348E+03
 6.39280E-01    7.73745E+03
 6.72060E-01    7.62923E+03
 7.06510E-01    7.47967E+03
 7.42740E-01    7.34582E+03
 7.80820E-01    7.27688E+03
 8.20850E-01    7.13430E+03
 8.62940E-01    7.01625E+03
 9.07180E-01    6.88910E+03
 9.61640E-01    6.75465E+03
 1.00260E+00    6.49926E+03
 1.10800E+00    6.22265E+03
 1.16480E+00    6.09960E+03
 1.22460E+00    6.00162E+03
 1.28730E+00    5.94128E+03
 1.35340E+00    5.88445E+03
 1.42270E+00    5.82885E+03
 1.49570E+00    5.74080E+03
 1.57240E+00    5.60211E+03
 1.65300E+00    5.45800E+03
 1.73770E+00    5.32294E+03
 1.82680E+00    5.19415E+03
 1.92050E+00    5.06027E+03
 2.01900E+00    4.93422E+03
 2.12250E+00    4.81388E+03
 2.23130E+00    4.71233E+03
 2.30690E+00    4.65983E+03
 2.34570E+00    4.63383E+03
 2.36530E+00    4.61627E+03
 2.38520E+00    4.57169E+03
 2.46600E+00    4.48532E+03
 2.59240E+00    4.39869E+03
 2.72530E+00    4.31012E+03
 2.86500E+00    4.21906E+03
 3.01190E+00    4.14640E+03
 3.16640E+00    4.08688E+03
 3.32870E+00    3.99845E+03
 3.67880E+00    3.92200E+03
 4.06570E+00    3.87127E+03
 4.49330E+00    3.85985E+03
 4.72370E+00    3.87823E+03
 4.96590E+00    3.90328E+03
 5.22050E+00    3.94517E+03
 5.48810E+00    3.99009E+03
 5.76950E+00    4.03730E+03
 6.06530E+00    4.08983E+03
 6.37630E+00    4.13869E+03
 6.59240E+00    4.16900E+03
 6.70320E+00    4.20660E+03
 7.04690E+00    4.25665E+03
 7.40820E+00    4.29989E+03
 7.78800E+00    4.34218E+03
 8.18730E+00    4.37497E+03
 8.60710E+00    4.40335E+03
 9.04840E+00    4.42255E+03
 9.51230E+00    4.43044E+03
 1.00000E+01    4.42668E+03
 1.05130E+01    4.41060E+03
 1.10520E+01    4.38278E+03
 1.16180E+01    4.34515E+03
 1.22140E+01    4.28983E+03
 1.28400E+01    4.22149E+03
 1.34990E+01    4.15595E+03
 1.38400E+01    4.11037E+03
 1.41910E+01    4.05814E+03
 1.45500E+01    4.00527E+03
 1.49180E+01    3.92466E+03
 1.56830E+01    3.81775E+03
 1.64870E+01    3.72240E+03
