# n + Xe131 : (n,p)     
# jendl4.0   S.Kunieda, A.Ichihara, K.Shibata+ EVAL-FEB22
# uncertainties: n
# # energies =    54
#   E(MeV)       xs(mb) 
 2.50000E-01    0.00000E+00
 3.00000E-01    1.08000E-31
 3.50000E-01    1.16600E-28
 4.00000E-01    2.22000E-26
 4.50000E-01    1.43300E-24
 5.00000E-01    4.84400E-23
 5.50000E-01    1.03500E-21
 6.00000E-01    1.54800E-20
 6.50000E-01    1.71200E-19
 7.00000E-01    1.42000E-18
 7.50000E-01    9.80400E-18
 8.00000E-01    5.93200E-17
 8.50000E-01    2.96400E-16
 9.00000E-01    1.43700E-15
 9.50000E-01    5.74200E-15
 1.00000E+00    2.32400E-14
 1.20000E+00    2.49700E-12
 1.40000E+00    1.17800E-10
 1.60000E+00    2.91700E-09
 1.80000E+00    4.46300E-08
 2.00000E+00    4.76000E-07
 2.20000E+00    3.40600E-06
 2.40000E+00    1.59200E-05
 2.60000E+00    5.44200E-05
 2.80000E+00    1.54100E-04
 3.00000E+00    3.78700E-04
 3.25000E+00    9.79700E-04
 3.50000E+00    2.22000E-03
 3.75000E+00    4.42100E-03
 4.00000E+00    8.03600E-03
 4.25000E+00    1.34100E-02
 4.50000E+00    2.09200E-02
 4.75000E+00    3.09000E-02
 5.00000E+00    4.33800E-02
 5.50000E+00    7.68100E-02
 6.00000E+00    1.23600E-01
 6.50000E+00    1.88400E-01
 7.00000E+00    2.82800E-01
 7.50000E+00    4.25900E-01
 8.00000E+00    6.44200E-01
 8.50000E+00    9.70000E-01
 9.00000E+00    1.43800E+00
 9.50000E+00    2.08200E+00
 1.00000E+01    2.93600E+00
 1.10000E+01    5.38200E+00
 1.20000E+01    8.94300E+00
 1.30000E+01    1.38800E+01
 1.40000E+01    2.00300E+01
 1.50000E+01    2.69200E+01
 1.60000E+01    3.37800E+01
 1.70000E+01    3.98700E+01
 1.80000E+01    4.44900E+01
 1.90000E+01    4.73500E+01
 2.00000E+01    4.89000E+01
