# n + Xe131 : (n,xa)    
# jendl4.0   S.Kunieda, A.Ichihara, K.Shibata+ EVAL-FEB22
# 
# # energies =    71
#   E(MeV)        xs(mb) 
 8.08029E-02    0.00000E+00
 9.00000E-02    0.00000E+00
 1.00000E-01    0.00000E+00
 1.20000E-01    5.89000E-06
 1.40000E-01    1.17800E-05
 1.60000E-01    1.76700E-05
 1.65193E-01    1.91994E-05
 1.80000E-01    2.35600E-05
 2.00000E-01    2.94500E-05
 2.50000E-01    4.41750E-05
 3.00000E-01    5.89000E-05
 3.43774E-01    7.17913E-05
 3.50000E-01    7.36250E-05
 3.67299E-01    7.87194E-05
 4.00000E-01    8.83500E-05
 4.07934E-01    9.06866E-05
 4.50000E-01    1.03075E-04
 5.00000E-01    1.17800E-04
 5.50000E-01    1.20200E-04
 5.69545E-01    1.22389E-04
 6.00000E-01    1.25800E-04
 6.41899E-01    1.32001E-04
 6.50000E-01    1.33200E-04
 6.72073E-01    1.35054E-04
 7.00000E-01    1.37400E-04
 7.05293E-01    1.37622E-04
 7.15370E-01    1.38046E-04
 7.50000E-01    1.39500E-04
 8.00000E-01    1.47700E-04
 8.50000E-01    1.50100E-04
 9.00000E-01    1.64500E-04
 9.50000E-01    1.67600E-04
 1.00000E+00    2.12700E-04
 1.20000E+00    2.64200E-04
 1.40000E+00    3.42500E-04
 1.60000E+00    4.52600E-04
 1.80000E+00    5.99300E-04
 2.00000E+00    7.76300E-04
 2.20000E+00    9.75500E-04
 2.40000E+00    1.21000E-03
 2.60000E+00    1.49900E-03
 2.80000E+00    1.85300E-03
 3.00000E+00    2.28200E-03
 3.25000E+00    2.91900E-03
 3.50000E+00    3.75900E-03
 3.75000E+00    4.71900E-03
 4.00000E+00    5.94200E-03
 4.25000E+00    7.27800E-03
 4.50000E+00    8.94500E-03
 4.75000E+00    1.06700E-02
 5.00000E+00    1.24800E-02
 5.50000E+00    1.69300E-02
 6.00000E+00    2.21000E-02
 6.50000E+00    2.80200E-02
 7.00000E+00    3.47100E-02
 7.50000E+00    4.26401E-02
 8.00000E+00    5.25908E-02
 8.50000E+00    6.59436E-02
 9.00000E+00    8.47338E-02
 9.50000E+00    1.11843E-01
 1.00000E+01    1.51030E-01
 1.10000E+01    2.86259E-01
 1.20000E+01    5.33353E-01
 1.30000E+01    9.26860E-01
 1.40000E+01    1.47223E+00
 1.50000E+01    2.14904E+00
 1.60000E+01    2.92510E+00
 1.70000E+01    3.76690E+00
 1.80000E+01    4.64660E+00
 1.90000E+01    5.54400E+00
 2.00000E+01    6.44700E+00
