# n + Na 23 : (n,tot)   
# jendl.ad   K.SHIBATA (JAERI)                 EVAL-AUG00
# uncertainties: n
# # energies =    69
#   E(MeV)       xs(mb) 
 1.00000E-10    3.71134E+03
 5.00000E-09    1.01055E+03
 1.00000E-08    7.65344E+02
 1.50000E-08    6.43011E+02
 2.00000E-08    5.65724E+02
 2.50000E-08    5.11128E+02
 3.00000E-08    4.69844E+02
 3.50000E-08    4.31971E+02
 4.20000E-08    3.95111E+02
 5.00000E-08    3.64453E+02
 5.80000E-08    3.38739E+02
 6.70000E-08    3.12613E+02
 8.00000E-08    2.82877E+02
 1.00000E-07    2.46114E+02
 1.40000E-07    2.12384E+02
 1.80000E-07    1.89640E+02
 2.20000E-07    1.74644E+02
 2.50000E-07    1.64440E+02
 2.80000E-07    1.57111E+02
 3.00000E-07    1.51948E+02
 3.20000E-07    1.46205E+02
 3.50000E-07    1.38280E+02
 4.00000E-07    1.26549E+02
 5.00000E-07    1.13231E+02
 6.25000E-07    1.01319E+02
 7.80000E-07    9.37733E+01
 8.50000E-07    9.02202E+01
 9.10000E-07    8.77566E+01
 9.50000E-07    8.63275E+01
 9.72000E-07    8.53255E+01
 9.96000E-07    8.43112E+01
 1.02000E-06    8.33357E+01
 1.04500E-06    8.23218E+01
 1.07100E-06    8.13001E+01
 1.09700E-06    8.03633E+01
 1.12300E-06    7.94252E+01
 1.15000E-06    7.65668E+01
 1.30000E-06    7.16480E+01
 1.50000E-06    6.36323E+01
 2.10000E-06    5.54495E+01
 2.60000E-06    4.95385E+01
 3.30000E-06    4.44876E+01
 4.00000E-06    3.41719E+01
 9.87700E-06    2.41319E+01
 1.59680E-05    1.87745E+01
 2.77000E-05    1.44092E+01
 4.80520E-05    1.13923E+01
 7.55014E-05    8.90094E+00
 1.48728E-04    6.62208E+00
 3.67262E-04    5.63812E+00
 9.06898E-04    7.04707E+00
 1.42510E-03    1.63171E+01
 2.23945E-03    1.23230E+02
 3.51910E-03    6.29106E+00
 5.53000E-03    2.19811E+00
 9.11800E-03    9.83886E-02
 1.50300E-02    2.98107E-02
 2.47800E-02    2.04522E+00
 4.08500E-02    1.84368E+00
 6.73400E-02    2.06201E-02
 1.11000E-01    5.63395E-01
 1.83000E-01    7.85355E-01
 3.02000E-01    4.82819E-01
 5.00000E-01    3.91091E-01
 8.21000E-01    2.41260E-01
 1.35300E+00    2.08483E-01
 2.23100E+00    1.89057E-01
 3.67900E+00    1.70758E-01
 6.06500E+00    8.47978E+01
