# n + Kr 83 : (n,xa)    
# jendl4.0   K.Shibata, A.Ichihara, S.Kunieda  EVAL-AUG09
# 
# # energies =    73
#   E(MeV)        xs(mb) 
 9.51030E-03    0.00000E+00
 1.00000E-02    0.00000E+00
 2.00000E-02    0.00000E+00
 3.00000E-02    0.00000E+00
 4.00000E-02    0.00000E+00
 4.20484E-02    0.00000E+00
 5.00000E-02    0.00000E+00
 6.00000E-02    0.00000E+00
 7.00000E-02    0.00000E+00
 8.00000E-02    0.00000E+00
 9.00000E-02    0.00000E+00
 1.00000E-01    0.00000E+00
 2.00000E-01    0.00000E+00
 3.00000E-01    0.00000E+00
 4.00000E-01    0.00000E+00
 5.00000E-01    0.00000E+00
 5.68862E-01    0.00000E+00
 5.78154E-01    0.00000E+00
 6.00000E-01    0.00000E+00
 6.98546E-01    0.00000E+00
 7.00000E-01    0.00000E+00
 8.00000E-01    0.00000E+00
 8.08619E-01    0.00000E+00
 8.20866E-01    0.00000E+00
 9.00000E-01    0.00000E+00
 1.00000E+00    0.00000E+00
 1.02417E+00    0.00000E+00
 1.11338E+00    0.00000E+00
 1.11631E+00    0.00000E+00
 1.13568E+00    0.00000E+00
 1.18464E+00    0.00000E+00
 1.23674E+00    0.00000E+00
 1.29345E+00    0.00000E+00
 1.50000E+00    0.00000E+00
 1.53525E+00    0.00000E+00
 1.54776E+00    0.00000E+00
 1.55235E+00    0.00000E+00
 1.55681E+00    0.00000E+00
 1.66247E+00    0.00000E+00
 1.68829E+00    0.00000E+00
 1.74255E+00    0.00000E+00
 1.75962E+00    0.00000E+00
 1.80256E+00    0.00000E+00
 1.91188E+00    0.00000E+00
 1.92200E+00    0.00000E+00
 2.00000E+00    0.00000E+00
 2.50000E+00    0.00000E+00
 3.00000E+00    4.24100E-04
 3.50000E+00    2.20500E-03
 4.00000E+00    6.04900E-03
 4.50000E+00    1.33600E-02
 5.00000E+00    2.22300E-02
 5.50000E+00    3.37800E-02
 6.00000E+00    6.31600E-02
 6.50000E+00    7.53000E-02
 7.00000E+00    1.01300E-01
 7.50000E+00    1.04100E-01
 8.00000E+00    1.52200E-01
 8.50000E+00    1.43400E-01
 9.00000E+00    1.76800E-01
 9.50000E+00    2.01100E-01
 1.00000E+01    2.54400E-01
 1.10000E+01    3.90900E-01
 1.20000E+01    6.12500E-01
 1.30000E+01    9.29118E-01
 1.40000E+01    1.33294E+00
 1.45000E+01    1.59516E+00
 1.50000E+01    1.80768E+00
 1.60000E+01    2.32960E+00
 1.70000E+01    2.87220E+00
 1.80000E+01    3.42710E+00
 1.90000E+01    3.93100E+00
 2.00000E+01    4.41500E+00
