# n + Xe124 : (n,xa)    
# jendl4.0   S.Kunieda, A.Ichihara, K.Shibata+ EVAL-FEB22
# 
# # energies =    61
#   E(MeV)        xs(mb) 
 3.57023E-01    2.58437E-03
 4.00000E-01    3.01650E-03
 4.50000E-01    3.51925E-03
 5.00000E-01    4.02200E-03
 5.50000E-01    4.30400E-03
 6.00000E-01    4.82000E-03
 6.50000E-01    5.31900E-03
 7.00000E-01    6.08300E-03
 7.50000E-01    6.79500E-03
 8.00000E-01    7.84600E-03
 8.50000E-01    8.80300E-03
 8.53502E-01    8.84460E-03
 8.86186E-01    9.23289E-03
 9.00000E-01    9.39700E-03
 9.50000E-01    1.00400E-02
 1.00000E+00    1.16200E-02
 1.20000E+00    1.73900E-02
 1.25820E+00    1.95259E-02
 1.27928E+00    2.02996E-02
 1.40000E+00    2.47300E-02
 1.44976E+00    2.76159E-02
 1.56139E+00    3.40905E-02
 1.60000E+00    3.63300E-02
 1.64195E+00    3.89413E-02
 1.70378E+00    4.27902E-02
 1.71386E+00    4.34177E-02
 1.80000E+00    4.87800E-02
 2.00000E+00    6.62100E-02
 2.20000E+00    8.75800E-02
 2.40000E+00    1.13300E-01
 2.60000E+00    1.43700E-01
 2.80000E+00    1.78700E-01
 3.00000E+00    2.18800E-01
 3.25000E+00    2.79800E-01
 3.50000E+00    3.43400E-01
 3.75000E+00    4.26200E-01
 4.00000E+00    5.02400E-01
 4.25000E+00    6.05700E-01
 4.50000E+00    6.90300E-01
 4.75000E+00    8.07500E-01
 5.00000E+00    8.94800E-01
 5.50000E+00    1.10300E+00
 6.00000E+00    1.30300E+00
 6.50000E+00    1.48703E+00
 7.00000E+00    1.65326E+00
 7.50000E+00    1.80166E+00
 8.00000E+00    1.95577E+00
 8.50000E+00    2.15447E+00
 9.00000E+00    2.43882E+00
 9.50000E+00    2.84810E+00
 1.00000E+01    3.42100E+00
 1.10000E+01    5.12950E+00
 1.20000E+01    6.80200E+00
 1.30000E+01    8.84200E+00
 1.40000E+01    1.14050E+01
 1.50000E+01    1.42760E+01
 1.60000E+01    1.73710E+01
 1.70000E+01    2.05990E+01
 1.80000E+01    2.38700E+01
 1.90000E+01    2.71400E+01
 2.00000E+01    3.03300E+01
