# n + Eu154 : (n,n'12)  
# jendl4.0   N.Iwamoto                         EVAL-Nov09
# uncertainties: n
# # energies =    95
#   E(MeV)       xs(mb) 
 1.35664E-01    0.00000E+00
 1.37593E-01    7.03432E+00
 1.40000E-01    9.93592E+00
 1.46252E-01    1.45546E+01
 1.50000E-01    1.66316E+01
 1.54606E-01    1.88411E+01
 1.60000E-01    2.11390E+01
 1.63494E-01    2.24734E+01
 1.70000E-01    2.46979E+01
 1.74740E-01    2.62069E+01
 1.76632E-01    2.64469E+01
 1.80000E-01    2.71716E+01
 1.81928E-01    2.75944E+01
 1.81994E-01    2.76087E+01
 1.86264E-01    2.80506E+01
 1.90000E-01    2.79516E+01
 1.93554E-01    2.83148E+01
 1.97406E-01    2.87700E+01
 2.00000E-01    2.90650E+01
 2.05153E-01    2.96150E+01
 2.15478E-01    3.06208E+01
 2.20918E-01    3.06579E+01
 2.25000E-01    3.04768E+01
 2.31301E-01    3.06835E+01
 2.32394E-01    3.07314E+01
 2.36821E-01    3.09126E+01
 2.40857E-01    3.10332E+01
 2.50000E-01    3.08951E+01
 2.51054E-01    3.09120E+01
 2.53475E-01    3.06421E+01
 2.56882E-01    3.05412E+01
 2.59882E-01    3.05269E+01
 2.74639E-01    3.07209E+01
 2.75000E-01    3.07279E+01
 2.78513E-01    3.08006E+01
 2.80373E-01    3.08419E+01
 2.80866E-01    3.07353E+01
 2.81210E-01    3.06990E+01
 2.83525E-01    3.06097E+01
 3.00000E-01    3.04739E+01
 4.00000E-01    2.67006E+01
 5.00000E-01    2.17174E+01
 6.00000E-01    1.77352E+01
 7.00000E-01    1.48238E+01
 8.00000E-01    1.25546E+01
 9.00000E-01    1.05539E+01
 1.00000E+00    8.97900E+00
 1.10000E+00    7.74395E+00
 1.20000E+00    6.66156E+00
 1.30000E+00    5.71678E+00
 1.40000E+00    4.91242E+00
 1.50000E+00    4.22621E+00
 1.60000E+00    3.63921E+00
 1.70000E+00    3.13586E+00
 1.80000E+00    2.70341E+00
 1.90000E+00    2.33132E+00
 2.00000E+00    2.01089E+00
 2.25000E+00    1.40664E+00
 2.50000E+00    9.62039E-01
 2.75000E+00    6.69447E-01
 3.00000E+00    4.68061E-01
 3.50000E+00    2.24891E-01
 4.00000E+00    1.09213E-01
 4.50000E+00    5.49348E-02
 5.00000E+00    2.98044E-02
 5.50000E+00    1.81059E-02
 6.00000E+00    1.25782E-02
 6.50000E+00    9.85790E-03
 7.00000E+00    8.37757E-03
 7.50000E+00    7.44463E-03
 8.00000E+00    6.76685E-03
 8.50000E+00    6.22538E-03
 9.00000E+00    5.77128E-03
 9.50000E+00    5.38407E-03
 1.00000E+01    5.05049E-03
 1.05000E+01    4.76007E-03
 1.10000E+01    4.50442E-03
 1.15000E+01    4.27607E-03
 1.20000E+01    4.06779E-03
 1.25000E+01    3.87387E-03
 1.30000E+01    3.69050E-03
 1.35000E+01    3.51584E-03
 1.40000E+01    3.34939E-03
 1.45000E+01    3.19148E-03
 1.50000E+01    3.04281E-03
 1.55000E+01    2.90834E-03
 1.60000E+01    2.78362E-03
 1.65000E+01    2.66839E-03
 1.70000E+01    2.56154E-03
 1.75000E+01    2.46181E-03
 1.80000E+01    2.36772E-03
 1.85000E+01    2.27816E-03
 1.90000E+01    2.19188E-03
 1.95000E+01    2.10836E-03
 2.00000E+01    2.02709E-03
