# n + Eu154 : (n,t)     
# jendl4.0   N.Iwamoto                         EVAL-Nov09
# uncertainties: n
# # energies =    71
#   E(MeV)       xs(mb) 
 3.87936E+00    0.00000E+00
 4.00194E+00    2.11500E-26
 4.24824E+00    2.05380E-20
 4.56855E+00    4.72660E-20
 4.59087E+00    4.91570E-20
 4.69512E+00    5.83000E-20
 4.84903E+00    7.18160E-20
 4.90903E+00    7.70850E-20
 4.92729E+00    7.86890E-20
 4.96930E+00    8.23780E-20
 4.97235E+00    8.26460E-20
 5.00000E+00    8.50740E-20
 5.01208E+00    1.01250E-19
 5.10884E+00    2.31390E-19
 5.11339E+00    2.37510E-19
 5.12129E+00    2.48150E-19
 5.17775E+00    3.24210E-19
 5.18059E+00    3.28030E-19
 5.19845E+00    3.52100E-19
 5.26009E+00    4.35140E-19
 5.39483E+00    6.16680E-19
 5.40005E+00    6.23710E-19
 5.41917E+00    6.49470E-19
 5.44917E+00    6.89890E-19
 5.46914E+00    7.16800E-19
 5.49913E+00    7.57200E-19
 5.50000E+00    7.58370E-19
 5.50271E+00    3.08470E-17
 5.54006E+00    4.45540E-16
 5.54903E+00    5.45130E-16
 5.55667E+00    6.29950E-16
 5.57094E+00    7.88390E-16
 5.57247E+00    8.05380E-16
 5.61888E+00    1.32070E-15
 5.62094E+00    1.34350E-15
 5.62673E+00    1.40780E-15
 5.64790E+00    1.64290E-15
 5.65512E+00    1.72300E-15
 5.66005E+00    1.77780E-15
 5.66724E+00    1.85760E-15
 5.69516E+00    2.16760E-15
 5.71248E+00    2.35990E-15
 6.00000E+00    5.55220E-15
 6.50000E+00    1.76750E-12
 7.00000E+00    8.97760E-11
 7.50000E+00    1.43640E-09
 8.00000E+00    1.07390E-08
 8.50000E+00    4.83510E-08
 9.00000E+00    1.64450E-07
 9.50000E+00    6.52810E-07
 1.00000E+01    4.03301E-06
 1.05000E+01    2.54998E-05
 1.10000E+01    1.28957E-04
 1.15000E+01    5.03908E-04
 1.20000E+01    1.66473E-03
 1.25000E+01    4.64555E-03
 1.30000E+01    1.12015E-02
 1.35000E+01    2.37314E-02
 1.40000E+01    4.48449E-02
 1.45000E+01    7.67630E-02
 1.50000E+01    1.20887E-01
 1.55000E+01    1.77935E-01
 1.60000E+01    2.45639E-01
 1.65000E+01    3.27944E-01
 1.70000E+01    4.18468E-01
 1.75000E+01    5.15373E-01
 1.80000E+01    6.22033E-01
 1.85000E+01    7.31223E-01
 1.90000E+01    8.44495E-01
 1.95000E+01    9.52732E-01
 2.00000E+01    1.05268E+00
