# n + Os192 : (n,xa)    
# jendl.ad   N.Iwamoto                         EVAL-Apr14
# 
# # energies =   114
#   E(MeV)        xs(mb) 
 1.05000E-01    1.43300E-13
 1.10000E-01    1.45545E-13
 1.20000E-01    1.50408E-13
 1.30000E-01    1.56052E-13
 1.40000E-01    1.62473E-13
 1.50000E-01    1.69600E-13
 1.60000E-01    2.30790E-13
 1.70000E-01    2.38195E-13
 1.80000E-01    2.45600E-13
 1.90000E-01    2.54874E-13
 2.00000E-01    2.64953E-13
 2.06875E-01    2.72330E-13
 2.25000E-01    1.79780E-13
 2.50000E-01    1.82100E-13
 2.75000E-01    2.42790E-13
 3.00000E-01    2.56520E-13
 4.00000E-01    4.77400E-13
 4.91630E-01    9.11490E-13
 5.00000E-01    8.68990E-13
 5.83329E-01    1.45248E-12
 6.00000E-01    1.51380E-12
 6.93999E-01    2.74890E-12
 7.00000E-01    2.74590E-12
 8.00000E-01    4.92800E-12
 9.00000E-01    9.12070E-12
 9.14371E-01    9.60746E-12
 9.14372E-01    9.60750E-12
 9.61566E-01    1.49030E-11
 1.00000E+00    1.64180E-11
 1.07516E+00    2.76760E-11
 1.09495E+00    2.93960E-11
 1.10000E+00    2.98740E-11
 1.13343E+00    3.34679E-11
 1.13344E+00    3.34690E-11
 1.14953E+00    3.45050E-11
 1.20000E+00    5.16970E-11
 1.21263E+00    5.36980E-11
 1.30000E+00    8.94610E-11
 1.34820E+00    1.03770E-10
 1.36918E+00    1.39840E-10
 1.40000E+00    1.51310E-10
 1.41727E+00    1.58900E-10
 1.45793E+00    1.75140E-10
 1.46425E+00    2.27900E-10
 1.47304E+00    2.31600E-10
 1.50000E+00    2.45860E-10
 1.56880E+00    3.79230E-10
 1.60000E+00    4.04100E-10
 1.60010E+00    4.04180E-10
 1.62134E+00    4.23540E-10
 1.65374E+00    4.53280E-10
 1.67384E+00    6.10450E-10
 1.70000E+00    6.39400E-10
 1.71737E+00    6.64682E-10
 1.72191E+00    6.71290E-10
 1.74290E+00    7.05390E-10
 1.78969E+00    9.96138E-10
 1.78970E+00    9.96200E-10
 1.80000E+00    1.01500E-09
 1.81721E+00    1.05280E-09
 1.83611E+00    1.09070E-09
 1.84705E+00    1.10029E-09
 1.84706E+00    1.10030E-09
 1.86773E+00    1.45740E-09
 1.87768E+00    1.47840E-09
 1.87852E+00    1.47820E-09
 1.88866E+00    1.48300E-09
 1.90000E+00    1.49990E-09
 1.90489E+00    1.51033E-09
 1.91268E+00    1.52695E-09
 1.93178E+00    1.56770E-09
 1.93411E+00    1.57070E-09
 1.94708E+00    1.59659E-09
 1.95019E+00    1.60280E-09
 1.95100E+00    1.60410E-09
 2.00000E+00    2.20500E-09
 2.25000E+00    5.37350E-09
 2.50000E+00    1.46260E-08
 2.75000E+00    3.16250E-08
 3.00000E+00    7.33390E-08
 3.50000E+00    2.84857E-07
 4.00000E+00    8.80554E-07
 4.50000E+00    2.25891E-06
 5.00000E+00    4.98274E-06
 5.50000E+00    9.71097E-06
 6.00000E+00    1.72089E-05
 6.50000E+00    2.84836E-05
 7.00000E+00    4.53596E-05
 7.50000E+00    7.27064E-05
 8.00000E+00    1.20154E-04
 8.50000E+00    2.01218E-04
 9.00000E+00    3.56355E-04
 9.50000E+00    6.45496E-04
 1.00000E+01    1.17777E-03
 1.05000E+01    2.13914E-03
 1.10000E+01    3.84199E-03
 1.15000E+01    6.78917E-03
 1.20000E+01    1.17747E-02
 1.25000E+01    1.99145E-02
 1.30000E+01    3.31541E-02
 1.35000E+01    5.39365E-02
 1.40000E+01    8.55819E-02
 1.45000E+01    1.32163E-01
 1.50000E+01    1.98241E-01
 1.55000E+01    2.88425E-01
 1.60000E+01    4.06855E-01
 1.65000E+01    5.56756E-01
 1.70000E+01    7.40190E-01
 1.75000E+01    9.57970E-01
 1.80000E+01    1.20979E+00
 1.85000E+01    1.49435E+00
 1.90000E+01    1.80978E+00
 1.95000E+01    2.15366E+00
 2.00000E+01    2.52335E+00
