# n + Sn122 : (n,xa)    
# jendl4.0   N.Iwamoto,K.Shibata               EVAL-Dec09
# 
# # energies =    98
#   E(MeV)        xs(mb) 
 1.05000E-01    0.00000E+00
 1.10000E-01    0.00000E+00
 1.20000E-01    0.00000E+00
 1.30000E-01    0.00000E+00
 1.40000E-01    0.00000E+00
 1.50000E-01    0.00000E+00
 1.60000E-01    0.00000E+00
 1.70000E-01    0.00000E+00
 1.80000E-01    0.00000E+00
 1.90000E-01    0.00000E+00
 2.00000E-01    0.00000E+00
 2.25000E-01    0.00000E+00
 2.50000E-01    0.00000E+00
 2.75000E-01    0.00000E+00
 3.00000E-01    0.00000E+00
 4.00000E-01    1.03157E-28
 5.00000E-01    5.83658E-27
 6.00000E-01    1.30555E-26
 7.00000E-01    2.35821E-26
 8.00000E-01    3.48849E-26
 9.00000E-01    5.00986E-26
 1.00000E+00    6.62187E-26
 1.10000E+00    8.27847E-26
 1.14995E+00    9.10594E-26
 1.20000E+00    9.93506E-26
 1.30000E+00    1.15917E-25
 1.40000E+00    1.32483E-25
 1.50000E+00    1.49049E-25
 1.60000E+00    1.65615E-25
 1.70000E+00    1.82181E-25
 1.80000E+00    1.98747E-25
 1.90000E+00    2.15313E-25
 2.00000E+00    2.31879E-25
 2.10498E+00    2.49269E-25
 2.15978E+00    2.58348E-25
 2.17163E+00    2.60311E-25
 2.25000E+00    2.73293E-25
 2.26439E+00    2.75677E-25
 2.35038E+00    2.89922E-25
 2.42896E+00    3.02940E-25
 2.43553E+00    3.13250E-25
 2.50000E+00    5.89000E-25
 2.51330E+00    7.71130E-25
 2.55127E+00    1.79060E-24
 2.57656E+00    3.25220E-24
 2.67331E+00    3.37680E-23
 2.67495E+00    3.51200E-23
 2.67898E+00    3.86640E-23
 2.69771E+00    5.98120E-23
 2.71230E+00    8.36120E-23
 2.75000E+00    1.97360E-22
 2.75713E+00    2.31690E-22
 2.77377E+00    3.32920E-22
 2.78848E+00    4.59050E-22
 2.79852E+00    5.70700E-22
 2.86136E+00    2.13160E-21
 2.87910E+00    3.07290E-21
 2.89146E+00    3.95330E-21
 2.90362E+00    5.04530E-21
 2.96933E+00    1.80470E-20
 2.98360E+00    2.36320E-20
 2.99568E+00    2.96480E-20
 2.99799E+00    3.08890E-20
 3.00000E+00    3.16060E-20
 3.50000E+00    9.47940E-17
 4.00000E+00    3.66430E-14
 4.50000E+00    3.64150E-12
 5.00000E+00    1.35110E-10
 5.50000E+00    2.42240E-09
 6.00000E+00    2.51590E-08
 6.50000E+00    1.73420E-07
 7.00000E+00    8.80040E-07
 7.50000E+00    3.56408E-06
 8.00000E+00    1.23008E-05
 8.50000E+00    3.79354E-05
 9.00000E+00    1.07683E-04
 9.50000E+00    2.84902E-04
 1.00000E+01    7.13132E-04
 1.05000E+01    1.69077E-03
 1.10000E+01    3.79680E-03
 1.15000E+01    8.08470E-03
 1.20000E+01    1.62715E-02
 1.25000E+01    3.08722E-02
 1.30000E+01    5.49894E-02
 1.35000E+01    9.17757E-02
 1.40000E+01    1.44178E-01
 1.45000E+01    2.15255E-01
 1.50000E+01    3.09869E-01
 1.55000E+01    4.34567E-01
 1.60000E+01    5.98167E-01
 1.65000E+01    8.08703E-01
 1.70000E+01    1.07434E+00
 1.75000E+01    1.39960E+00
 1.80000E+01    1.78847E+00
 1.85000E+01    2.24058E+00
 1.90000E+01    2.75579E+00
 1.95000E+01    3.33008E+00
 2.00000E+01    3.96079E+00
