# n + Xe124 : (n,tot)   
# jendl.ad   kunieda                           EVAL-Mar14
# uncertainties: n
# # energies =    69
#   E(MeV)       xs(mb) 
 1.00000E-10    1.02844E+06
 5.00000E-09    2.80565E+05
 1.00000E-08    2.12815E+05
 1.50000E-08    1.79085E+05
 2.00000E-08    1.57800E+05
 2.50000E-08    1.42790E+05
 3.00000E-08    1.31448E+05
 3.50000E-08    1.21068E+05
 4.20000E-08    1.11008E+05
 5.00000E-08    1.02651E+05
 5.80000E-08    9.56426E+04
 6.70000E-08    8.85494E+04
 8.00000E-08    8.05406E+04
 1.00000E-07    7.07030E+04
 1.40000E-07    6.17721E+04
 1.80000E-07    5.58672E+04
 2.20000E-07    5.20465E+04
 2.50000E-07    4.94705E+04
 2.80000E-07    4.76426E+04
 3.00000E-07    4.63741E+04
 3.20000E-07    4.49812E+04
 3.50000E-07    4.30957E+04
 4.00000E-07    4.04041E+04
 5.00000E-07    3.75449E+04
 6.25000E-07    3.52599E+04
 7.80000E-07    3.40186E+04
 8.50000E-07    3.35222E+04
 9.10000E-07    3.32159E+04
 9.50000E-07    3.30608E+04
 9.72000E-07    3.29547E+04
 9.96000E-07    3.28594E+04
 1.02000E-06    3.27731E+04
 1.04500E-06    3.26966E+04
 1.07100E-06    3.26318E+04
 1.09700E-06    3.25790E+04
 1.12300E-06    3.25368E+04
 1.15000E-06    3.24925E+04
 1.30000E-06    3.27105E+04
 1.50000E-06    3.46744E+04
 2.10000E-06    4.07822E+04
 2.60000E-06    5.54113E+04
 3.30000E-06    1.02183E+05
 4.00000E-06    2.13163E+06
 9.87700E-06    2.53966E+06
 1.59680E-05    2.89967E+03
 2.77000E-05    3.85890E+02
 4.80520E-05    9.75250E+01
 7.55014E-05    3.19904E+01
 1.48728E-04    8.67974E+03
 3.67262E-04    9.54650E+03
 9.06898E-04    5.62901E+03
 1.42510E-03    4.04255E+03
 2.23945E-03    2.94593E+03
 3.51910E-03    2.20305E+03
 5.53000E-03    1.69314E+03
 9.11800E-03    1.34852E+03
 1.50300E-02    1.09777E+03
 2.47800E-02    8.94536E+02
 4.08500E-02    7.21323E+02
 6.73400E-02    5.81191E+02
 1.11000E-01    4.86629E+02
 1.83000E-01    4.44773E+02
 3.02000E-01    3.80159E+02
 5.00000E-01    3.05212E+02
 8.21000E-01    2.93234E+02
 1.35300E+00    2.95070E+02
 2.23100E+00    2.45687E+02
 3.67900E+00    1.21162E+02
 6.06500E+00    1.80963E+03
