# n + Rh103 : (n,el)    
# jendl4.0   JNDC FP NUCLEAR DATA W.G.         EVAL-MAR90
# uncertainties: n
# # energies =   171
#   E(MeV)       xs(mb) 
 1.00000E-11    5.69788E+03
 1.00000E-07    3.10882E+03
 4.13990E-07    2.83844E+03
 5.31580E-07    2.62143E+03
 6.82560E-07    2.22004E+03
 8.76420E-07    1.62753E+03
 1.12540E-06    1.57160E+04
 1.44500E-06    8.26790E+03
 1.85540E-06    5.68080E+03
 2.37240E-06    4.98337E+03
 3.05900E-06    4.66424E+03
 3.92790E-06    4.48745E+03
 5.04350E-06    4.37661E+03
 6.47600E-06    4.30145E+03
 8.31530E-06    4.24706E+03
 1.06770E-05    4.20626E+03
 1.37100E-05    4.17274E+03
 1.76030E-05    4.14229E+03
 2.26030E-05    4.11101E+03
 2.92030E-05    4.07532E+03
 3.72670E-05    4.02451E+03
 4.78510E-05    4.05256E+03
 6.14420E-05    3.95835E+03
 7.88930E-05    3.97474E+03
 1.01300E-04    3.90264E+03
 1.30070E-04    2.18263E+04
 1.67020E-04    7.02621E+03
 2.14450E-04    7.56025E+03
 2.75360E-04    9.00999E+03
 3.53580E-04    1.17182E+04
 4.54000E-04    6.04613E+03
 5.82950E-04    1.05036E+04
 7.48520E-04    6.91007E+03
 9.61120E-04    6.26056E+03
 1.23410E-03    6.78693E+03
 1.58460E-03    7.99031E+03
 2.03470E-03    6.27671E+03
 2.24870E-03    7.74950E+03
 2.48520E-03    7.16205E+03
 2.61260E-03    6.89275E+03
 2.74650E-03    5.70094E+03
 3.03540E-03    6.73660E+03
 3.35460E-03    7.97918E+03
 3.70740E-03    7.05547E+03
 4.30740E-03    6.97911E+03
 5.53080E-03    6.89920E+03
 7.10170E-03    6.83816E+03
 9.11880E-03    6.79856E+03
 1.17090E-02    6.78501E+03
 1.50340E-02    6.79687E+03
 1.93050E-02    6.82134E+03
 2.18750E-02    6.84979E+03
 2.35790E-02    6.86851E+03
 2.41760E-02    6.87843E+03
 2.47880E-02    6.89317E+03
 2.60580E-02    6.90973E+03
 2.70000E-02    6.92861E+03
 2.85000E-02    6.96745E+03
 3.18280E-02    7.00830E+03
 3.43070E-02    7.07694E+03
 4.08680E-02    7.16365E+03
 4.63090E-02    7.24096E+03
 5.24750E-02    7.30224E+03
 5.65620E-02    7.38353E+03
 6.73790E-02    7.46105E+03
 7.20000E-02    7.51197E+03
 7.95000E-02    7.55505E+03
 8.25000E-02    7.57863E+03
 8.65170E-02    7.63147E+03
 9.80370E-02    7.68024E+03
 1.11090E-01    7.70303E+03
 1.16790E-01    7.71806E+03
 1.22770E-01    7.73387E+03
 1.29070E-01    7.75050E+03
 1.35690E-01    7.76796E+03
 1.42640E-01    7.78633E+03
 1.49960E-01    7.79859E+03
 1.57640E-01    7.79917E+03
 1.65730E-01    7.79956E+03
 1.74220E-01    7.79998E+03
 1.83160E-01    7.80042E+03
 1.92550E-01    7.80046E+03
 2.02420E-01    7.79028E+03
 2.12800E-01    7.77519E+03
 2.23710E-01    7.75933E+03
 2.35180E-01    7.74266E+03
 2.47240E-01    7.71394E+03
 2.73240E-01    7.67410E+03
 2.87250E-01    7.65168E+03
 2.94520E-01    7.64121E+03
 2.97200E-01    7.63703E+03
 2.98500E-01    7.62570E+03
 3.01970E-01    7.50630E+03
 3.33730E-01    7.28104E+03
 3.68830E-01    7.10894E+03
 3.87740E-01    6.98714E+03
 4.07620E-01    6.80766E+03
 4.50490E-01    6.57509E+03
 4.97870E-01    6.41230E+03
 5.23400E-01    6.32075E+03
 5.50230E-01    6.22638E+03
 5.78440E-01    6.12722E+03
 6.08100E-01    6.03024E+03
 6.39280E-01    5.93344E+03
 6.72060E-01    5.83243E+03
 7.06510E-01    5.72765E+03
 7.42740E-01    5.62543E+03
 7.80820E-01    5.52300E+03
 8.20850E-01    5.41237E+03
 8.62940E-01    5.29035E+03
 9.07180E-01    5.15090E+03
 9.61640E-01    5.01711E+03
 1.00260E+00    4.82550E+03
 1.10800E+00    4.62329E+03
 1.16480E+00    4.49050E+03
 1.22460E+00    4.35694E+03
 1.28730E+00    4.22043E+03
 1.35340E+00    4.08102E+03
 1.42270E+00    3.94798E+03
 1.49570E+00    3.81127E+03
 1.57240E+00    3.67142E+03
 1.65300E+00    3.53727E+03
 1.73770E+00    3.40514E+03
 1.82680E+00    3.27197E+03
 1.92050E+00    3.14487E+03
 2.01900E+00    3.02291E+03
 2.12250E+00    2.90535E+03
 2.23130E+00    2.81170E+03
 2.30690E+00    2.75547E+03
 2.34570E+00    2.72950E+03
 2.36530E+00    2.71206E+03
 2.38520E+00    2.66779E+03
 2.46600E+00    2.58103E+03
 2.59240E+00    2.48113E+03
 2.72530E+00    2.38555E+03
 2.86500E+00    2.29244E+03
 3.01190E+00    2.22595E+03
 3.16640E+00    2.17601E+03
 3.32870E+00    2.10017E+03
 3.67880E+00    2.00386E+03
 4.06570E+00    1.97321E+03
 4.49330E+00    1.97703E+03
 4.72370E+00    1.97975E+03
 4.96590E+00    1.99527E+03
 5.22050E+00    2.03296E+03
 5.48810E+00    2.07289E+03
 5.76950E+00    2.11369E+03
 6.06530E+00    2.16145E+03
 6.37630E+00    2.20661E+03
 6.59240E+00    2.23462E+03
 6.70320E+00    2.27218E+03
 7.04690E+00    2.32537E+03
 7.40820E+00    2.38031E+03
 7.78800E+00    2.43295E+03
 8.18730E+00    2.47499E+03
 8.60710E+00    2.51623E+03
 9.04840E+00    2.60720E+03
 9.51230E+00    2.65959E+03
 1.00000E+01    2.70668E+03
 1.05130E+01    2.74641E+03
 1.10520E+01    2.76762E+03
 1.16180E+01    2.81985E+03
 1.22140E+01    2.73572E+03
 1.28400E+01    2.63688E+03
 1.34990E+01    2.57680E+03
 1.38400E+01    2.53198E+03
 1.41910E+01    2.46078E+03
 1.45500E+01    2.39207E+03
 1.49180E+01    2.28525E+03
 1.56830E+01    2.14272E+03
 1.64870E+01    2.02916E+03
