# n + Fe 54 : (n,n'02)  
# jendl4.0   S.IIJIMA,H.YAMAKOSHI              EVAL-MAR87
# uncertainties: n
# # energies =   102
#   E(MeV)       xs(mb) 
 2.58566E+00    0.00000E+00
 2.58639E+00    3.85274E-01
 2.58781E+00    1.13174E+00
 2.59048E+00    2.53135E+00
 2.59281E+00    3.75601E+00
 2.59690E+00    5.89916E+00
 2.59997E+00    7.50653E+00
 2.60458E+00    9.91756E+00
 2.60920E+00    1.23286E+01
 2.62060E+00    1.39221E+01
 2.63170E+00    1.54658E+01
 2.64250E+00    1.69612E+01
 2.65299E+00    1.84099E+01
 2.66320E+00    1.98134E+01
 2.67313E+00    2.11729E+01
 2.68279E+00    2.24900E+01
 2.70159E+00    2.50419E+01
 2.71934E+00    2.74343E+01
 2.73609E+00    2.96771E+01
 2.75188E+00    3.17798E+01
 2.76677E+00    3.37511E+01
 2.78080E+00    3.55991E+01
 2.79402E+00    3.73317E+01
 2.81897E+00    4.05802E+01
 2.84099E+00    4.34227E+01
 2.86039E+00    4.59098E+01
 2.87748E+00    4.80861E+01
 2.90763E+00    5.18945E+01
 2.93046E+00    5.47509E+01
 2.94769E+00    5.68931E+01
 2.97373E+00    6.01065E+01
 3.00000E+00    6.33199E+01
 3.00506E+00    6.40475E+01
 3.01433E+00    6.52854E+01
 3.03993E+00    6.78485E+01
 3.06251E+00    7.00912E+01
 3.10242E+00    7.40159E+01
 3.13270E+00    7.69594E+01
 3.15560E+00    7.91671E+01
 3.19026E+00    8.24785E+01
 3.22531E+00    8.57900E+01
 3.25770E+00    8.76878E+01
 3.30689E+00    9.05346E+01
 3.35682E+00    9.33813E+01
 3.40755E+00    9.22170E+01
 3.52574E+00    9.36564E+01
 3.61707E+00    9.47359E+01
 3.75851E+00    9.63551E+01
 3.90549E+00    9.79744E+01
 4.00000E+00    9.66202E+01
 4.10842E+00    9.64320E+01
 4.12288E+00    9.54453E+01
 4.14815E+00    9.39165E+01
 4.19601E+00    9.22963E+01
 4.26883E+00    8.98661E+01
 4.34292E+00    8.74358E+01
 4.37644E+00    8.60813E+01
 4.45138E+00    8.44957E+01
 4.56620E+00    8.21173E+01
 4.68398E+00    7.97389E+01
 4.74205E+00    7.74328E+01
 4.78789E+00    7.54002E+01
 4.86939E+00    7.23631E+01
 4.93426E+00    7.01779E+01
 5.00000E+00    6.79926E+01
 5.04155E+00    6.73799E+01
 5.14041E+00    6.58523E+01
 5.24121E+00    6.43247E+01
 5.33054E+00    6.24917E+01
 5.40996E+00    6.08878E+01
 5.48042E+00    5.94845E+01
 5.54282E+00    5.82565E+01
 5.65374E+00    5.61076E+01
 5.73839E+00    5.44959E+01
 5.80270E+00    5.32871E+01
 5.90053E+00    5.14740E+01
 6.00000E+00    4.96608E+01
 6.05809E+00    4.86382E+01
 6.16852E+00    4.67209E+01
 6.26679E+00    4.50432E+01
 6.35407E+00    4.35752E+01
 6.43143E+00    4.22908E+01
 6.49990E+00    4.11669E+01
 6.56040E+00    4.01834E+01
 6.66764E+00    3.84625E+01
 6.74922E+00    3.71717E+01
 6.81106E+00    3.62037E+01
 6.90488E+00    3.47516E+01
 7.00000E+00    3.32995E+01
 8.00000E+00    2.33671E+01
 9.00000E+00    1.88409E+01
 1.00000E+01    1.61580E+01
 1.10000E+01    1.44042E+01
 1.20000E+01    1.32311E+01
 1.30000E+01    1.23717E+01
 1.40000E+01    1.16504E+01
 1.50000E+01    1.10284E+01
 1.60000E+01    1.06296E+01
 1.70000E+01    1.02099E+01
 1.80000E+01    1.01608E+01
 1.90000E+01    9.72244E+00
 2.00000E+01    9.62574E+00
