# n + Te130 : (n,tot)   
# jendl4.0   JNDC FP NUCLEAR DATA W.G.         EVAL-MAR90
# uncertainties: n
# # energies =   171
#   E(MeV)       xs(mb) 
 1.00000E-11    8.27221E+03
 1.00000E-07    3.90438E+03
 4.13990E-07    3.87861E+03
 5.31580E-07    3.87299E+03
 6.82560E-07    3.86779E+03
 8.76420E-07    3.86314E+03
 1.12540E-06    3.85977E+03
 1.44500E-06    3.85607E+03
 1.85540E-06    3.85137E+03
 2.37240E-06    3.84703E+03
 3.05900E-06    3.84439E+03
 3.92790E-06    3.84107E+03
 5.04350E-06    3.83681E+03
 6.47600E-06    3.83133E+03
 8.31530E-06    3.82430E+03
 1.06770E-05    3.81567E+03
 1.37100E-05    3.80890E+03
 1.76030E-05    3.80139E+03
 2.26030E-05    3.79161E+03
 2.92030E-05    3.77920E+03
 3.72670E-05    3.76500E+03
 4.78510E-05    3.75349E+03
 6.14420E-05    3.73955E+03
 7.88930E-05    3.72279E+03
 1.01300E-04    3.71015E+03
 1.30070E-04    3.69582E+03
 1.67020E-04    3.68125E+03
 2.14450E-04    3.67113E+03
 2.75360E-04    3.65848E+03
 3.53580E-04    3.64917E+03
 4.54000E-04    3.64199E+03
 5.82950E-04    3.63278E+03
 7.48520E-04    3.62502E+03
 9.61120E-04    3.74095E+03
 1.23410E-03    3.61451E+03
 1.58460E-03    3.84853E+03
 2.03470E-03    3.66920E+03
 2.24870E-03    3.60046E+03
 2.48520E-03    3.59785E+03
 2.61260E-03    3.59598E+03
 2.74650E-03    3.59299E+03
 3.03540E-03    3.79656E+03
 3.35460E-03    3.58531E+03
 3.70740E-03    3.57716E+03
 4.30740E-03    3.84988E+03
 5.53080E-03    4.10710E+03
 7.10170E-03    3.81572E+03
 9.11880E-03    4.90133E+03
 1.17090E-02    3.76179E+03
 1.50340E-02    3.77497E+03
 1.93050E-02    3.86578E+03
 2.18750E-02    3.92515E+03
 2.35790E-02    2.66760E+03
 2.41760E-02    7.61617E+03
 2.47880E-02    3.77394E+03
 2.60580E-02    3.61990E+03
 2.70000E-02    3.79408E+03
 2.85000E-02    5.43415E+03
 3.18280E-02    5.58481E+03
 3.43070E-02    5.59464E+03
 4.08680E-02    5.60841E+03
 4.63090E-02    5.62138E+03
 5.24750E-02    5.63249E+03
 5.65620E-02    5.64692E+03
 6.73790E-02    5.66131E+03
 7.20000E-02    5.67105E+03
 7.95000E-02    5.67921E+03
 8.25000E-02    5.68393E+03
 8.65170E-02    5.69271E+03
 9.80370E-02    5.69117E+03
 1.11090E-01    5.67541E+03
 1.16790E-01    5.66547E+03
 1.22770E-01    5.65503E+03
 1.29070E-01    5.64405E+03
 1.35690E-01    5.63251E+03
 1.42640E-01    5.62038E+03
 1.49960E-01    5.61461E+03
 1.57640E-01    5.61580E+03
 1.65730E-01    5.61706E+03
 1.74220E-01    5.61839E+03
 1.83160E-01    5.61978E+03
 1.92550E-01    5.62124E+03
 2.02420E-01    5.62405E+03
 2.12800E-01    5.63367E+03
 2.23710E-01    5.64473E+03
 2.35180E-01    5.65636E+03
 2.47240E-01    5.67564E+03
 2.73240E-01    5.70179E+03
 2.87250E-01    5.71699E+03
 2.94520E-01    5.72408E+03
 2.97200E-01    5.72691E+03
 2.98500E-01    5.73030E+03
 3.01970E-01    5.75835E+03
 3.33730E-01    5.81715E+03
 3.68830E-01    5.86525E+03
 3.87740E-01    5.89953E+03
 4.07620E-01    5.94909E+03
 4.50490E-01    6.01636E+03
 4.97870E-01    6.07118E+03
 5.23400E-01    6.11022E+03
 5.50230E-01    6.14984E+03
 5.78440E-01    6.19048E+03
 6.08100E-01    6.23320E+03
 6.39280E-01    6.27812E+03
 6.72060E-01    6.32514E+03
 7.06510E-01    6.36695E+03
 7.42740E-01    6.40697E+03
 7.80820E-01    6.44903E+03
 8.20850E-01    6.49202E+03
 8.62940E-01    6.52556E+03
 9.07180E-01    6.56071E+03
 9.61640E-01    6.59449E+03
 1.00260E+00    6.61890E+03
 1.10800E+00    6.63941E+03
 1.16480E+00    6.65403E+03
 1.22460E+00    6.66379E+03
 1.28730E+00    6.64961E+03
 1.35340E+00    6.63189E+03
 1.42270E+00    6.61326E+03
 1.49570E+00    6.58830E+03
 1.57240E+00    6.54409E+03
 1.65300E+00    6.49610E+03
 1.73770E+00    6.43558E+03
 1.82680E+00    6.36512E+03
 1.92050E+00    6.29104E+03
 2.01900E+00    6.20874E+03
 2.12250E+00    6.11587E+03
 2.23130E+00    6.03234E+03
 2.30690E+00    5.97723E+03
 2.34570E+00    5.94911E+03
 2.36530E+00    5.93012E+03
 2.38520E+00    5.88191E+03
 2.46600E+00    5.78673E+03
 2.59240E+00    5.67985E+03
 2.72530E+00    5.56909E+03
 2.86500E+00    5.46006E+03
 3.01190E+00    5.33942E+03
 3.16640E+00    5.20207E+03
 3.32870E+00    5.00297E+03
 3.67880E+00    4.74814E+03
 4.06570E+00    4.51682E+03
 4.49330E+00    4.35430E+03
 4.72370E+00    4.24692E+03
 4.96590E+00    4.16376E+03
 5.22050E+00    4.11561E+03
 5.48810E+00    4.06556E+03
 5.76950E+00    4.01585E+03
 6.06530E+00    4.01533E+03
 6.37630E+00    4.03365E+03
 6.59240E+00    4.04501E+03
 6.70320E+00    4.06106E+03
 7.04690E+00    4.11221E+03
 7.40820E+00    4.18230E+03
 7.78800E+00    4.25598E+03
 8.18730E+00    4.33344E+03
 8.60710E+00    4.41488E+03
 9.04840E+00    4.49478E+03
 9.51230E+00    4.56784E+03
 1.00000E+01    4.63719E+03
 1.05130E+01    4.69503E+03
 1.10520E+01    4.75316E+03
 1.16180E+01    4.81147E+03
 1.22140E+01    4.86324E+03
 1.28400E+01    4.91350E+03
 1.34990E+01    4.95131E+03
 1.38400E+01    4.97734E+03
 1.41910E+01    5.00548E+03
 1.45500E+01    5.03409E+03
 1.49180E+01    5.07268E+03
 1.56830E+01    5.10519E+03
 1.64870E+01    5.07842E+03
