# n + Cd108 : (n,xp)    
# jendl4.0   S.Kunieda, A.Ichihara, K.Shibata+ EVAL-FEB22
# 
# # energies =    66
#   E(MeV)        xs(mb) 
 6.38903E-01    0.00000E+00
 6.50000E-01    0.00000E+00
 7.00000E-01    0.00000E+00
 7.50000E-01    0.00000E+00
 8.00000E-01    0.00000E+00
 8.50000E-01    0.00000E+00
 9.00000E-01    2.22400E-33
 9.50000E-01    5.04200E-26
 1.00000E+00    1.12000E-22
 1.20000E+00    1.68100E-16
 1.40000E+00    2.01900E-13
 1.52256E+00    1.50674E-11
 1.60000E+00    2.44600E-11
 1.61681E+00    9.51999E-11
 1.73673E+00    5.99728E-10
 1.80000E+00    8.65900E-10
 1.93132E+00    1.26739E-08
 2.00000E+00    1.88500E-08
 2.16591E+00    2.37808E-07
 2.18294E+00    2.60281E-07
 2.20000E+00    2.82800E-07
 2.22281E+00    5.56950E-07
 2.26028E+00    1.00746E-06
 2.38789E+00    2.54137E-06
 2.39676E+00    2.64801E-06
 2.40000E+00    2.68700E-06
 2.50954E+00    1.19668E-05
 2.56514E+00    1.66765E-05
 2.57912E+00    1.78608E-05
 2.58920E+00    1.87150E-05
 2.60000E+00    1.96300E-05
 2.62597E+00    3.19229E-05
 2.64446E+00    4.06756E-05
 2.67035E+00    5.29307E-05
 2.70302E+00    6.83960E-05
 2.71312E+00    7.31739E-05
 2.80000E+00    1.14300E-04
 3.00000E+00    4.76900E-04
 3.25000E+00    2.02500E-03
 3.50000E+00    6.83200E-03
 3.75000E+00    1.95400E-02
 4.00000E+00    4.67600E-02
 4.25000E+00    1.06500E-01
 4.50000E+00    2.01900E-01
 4.75000E+00    3.85700E-01
 5.00000E+00    6.21900E-01
 5.50000E+00    1.49300E+00
 6.00000E+00    2.95800E+00
 6.50000E+00    5.04100E+00
 7.00000E+00    7.61800E+00
 7.50000E+00    1.04900E+01
 8.00000E+00    1.34800E+01
 8.50000E+00    1.66100E+01
 9.00000E+00    1.99400E+01
 9.50000E+00    2.36600E+01
 1.00000E+01    2.80301E+01
 1.10000E+01    3.94037E+01
 1.20000E+01    5.48562E+01
 1.30000E+01    7.43520E+01
 1.40000E+01    9.75500E+01
 1.50000E+01    1.23930E+02
 1.60000E+01    1.52530E+02
 1.70000E+01    1.81690E+02
 1.80000E+01    2.10690E+02
 1.90000E+01    2.39500E+02
 2.00000E+01    2.67840E+02
