# n + Os184 : (n,xp)    
# jendl.ad   N.Iwamoto                         EVAL-Apr14
# 
# # energies =    91
#   E(MeV)        xs(mb) 
 1.05000E-01    0.00000E+00
 1.10000E-01    0.00000E+00
 1.20000E-01    0.00000E+00
 1.20457E-01    0.00000E+00
 1.30000E-01    0.00000E+00
 1.40000E-01    0.00000E+00
 1.50000E-01    0.00000E+00
 1.60000E-01    0.00000E+00
 1.70000E-01    0.00000E+00
 1.80000E-01    0.00000E+00
 1.90000E-01    0.00000E+00
 2.00000E-01    0.00000E+00
 2.25000E-01    0.00000E+00
 2.50000E-01    4.72380E-18
 2.75000E-01    1.10770E-17
 3.00000E-01    2.52760E-17
 3.85874E-01    5.61190E-16
 4.00000E-01    8.50900E-16
 5.00000E-01    1.25700E-14
 6.00000E-01    1.36450E-13
 7.00000E-01    1.13640E-12
 7.78385E-01    5.14690E-12
 8.00000E-01    7.67020E-12
 9.00000E-01    4.35650E-11
 9.47950E-01    9.44200E-11
 1.00000E+00    1.92850E-10
 1.04771E+00    3.80150E-10
 1.08695E+00    6.37820E-10
 1.10000E+00    7.42010E-10
 1.20000E+00    2.58990E-09
 1.21462E+00    3.09250E-09
 1.23176E+00    3.73290E-09
 1.28185E+00    6.58480E-09
 1.30000E+00    8.05040E-09
 1.40000E+00    2.34540E-08
 1.41441E+00    2.72190E-08
 1.43613E+00    3.37380E-08
 1.45365E+00    4.01230E-08
 1.50000E+00    6.10420E-08
 1.50886E+00    6.63160E-08
 1.55241E+00    9.75920E-08
 1.60000E+00    1.46760E-07
 1.62203E+00    1.77480E-07
 1.62961E+00    1.89420E-07
 1.64050E+00    2.07270E-07
 1.64668E+00    2.17320E-07
 1.70000E+00    3.32830E-07
 1.70729E+00    3.52920E-07
 1.71693E+00    3.77510E-07
 1.72759E+00    4.08150E-07
 1.80000E+00    7.07190E-07
 1.90000E+00    1.45384E-06
 2.00000E+00    2.82583E-06
 2.25000E+00    1.18735E-05
 2.50000E+00    4.25039E-05
 2.75000E+00    1.18246E-04
 3.00000E+00    2.98178E-04
 3.50000E+00    1.27310E-03
 4.00000E+00    3.82273E-03
 4.50000E+00    8.87577E-03
 5.00000E+00    1.70453E-02
 5.50000E+00    2.85886E-02
 6.00000E+00    4.41146E-02
 6.50000E+00    6.59669E-02
 7.00000E+00    1.00770E-01
 7.50000E+00    1.60478E-01
 8.00000E+00    2.62890E-01
 8.50000E+00    4.31166E-01
 9.00000E+00    6.91950E-01
 9.50000E+00    1.07158E+00
 1.00000E+01    1.59523E+00
 1.05000E+01    2.28163E+00
 1.10000E+01    3.14561E+00
 1.15000E+01    4.19818E+00
 1.20000E+01    5.44722E+00
 1.25000E+01    6.89793E+00
 1.30000E+01    8.55279E+00
 1.35000E+01    1.04123E+01
 1.40000E+01    1.24746E+01
 1.45000E+01    1.47357E+01
 1.50000E+01    1.71895E+01
 1.55000E+01    1.98286E+01
 1.60000E+01    2.26443E+01
 1.65000E+01    2.56254E+01
 1.70000E+01    2.87606E+01
 1.75000E+01    3.20376E+01
 1.80000E+01    3.54456E+01
 1.85000E+01    3.89740E+01
 1.90000E+01    4.26143E+01
 1.95000E+01    4.63603E+01
 2.00000E+01    5.02061E+01
