# n + Dy158 : (n,el)    
# jendl4.0   N.Iwamoto,S.Chiba                 EVAL-Nov09
# uncertainties: n
# # energies =   171
#   E(MeV)       xs(mb) 
 1.00000E-11    1.18566E+04
 1.00000E-07    7.54750E+03
 4.13990E-07    7.44133E+03
 5.31580E-07    7.39376E+03
 6.82560E-07    7.33911E+03
 8.76420E-07    7.27745E+03
 1.12540E-06    7.21098E+03
 1.44500E-06    7.13891E+03
 1.85540E-06    7.06235E+03
 2.37240E-06    6.98205E+03
 3.05900E-06    6.89487E+03
 3.92790E-06    6.80882E+03
 5.04350E-06    6.71119E+03
 6.47600E-06    6.60971E+03
 8.31530E-06    6.48330E+03
 1.06770E-05    6.32026E+03
 1.37100E-05    6.10302E+03
 1.76030E-05    5.75786E+03
 2.26030E-05    5.06588E+03
 2.92030E-05    2.75625E+03
 3.72670E-05    1.53388E+05
 4.78510E-05    1.25199E+04
 6.14420E-05    7.05420E+03
 7.88930E-05    1.18163E+05
 1.01300E-04    8.23627E+04
 1.30070E-04    7.61303E+04
 1.67020E-04    7.03461E+04
 2.14450E-04    6.45748E+04
 2.75360E-04    5.91278E+04
 3.53580E-04    5.41175E+04
 4.54000E-04    4.93999E+04
 5.82950E-04    4.50689E+04
 7.48520E-04    4.10192E+04
 9.61120E-04    3.73754E+04
 1.23410E-03    3.41858E+04
 1.58460E-03    3.12712E+04
 2.03470E-03    2.93720E+04
 2.24870E-03    2.83432E+04
 2.48520E-03    2.75941E+04
 2.61260E-03    2.71066E+04
 2.74650E-03    2.63928E+04
 3.03540E-03    2.54686E+04
 3.35460E-03    2.45766E+04
 3.70740E-03    2.35120E+04
 4.30740E-03    2.19384E+04
 5.53080E-03    2.01196E+04
 7.10170E-03    1.84866E+04
 9.11880E-03    1.70349E+04
 1.17090E-02    1.57734E+04
 1.50340E-02    1.46124E+04
 1.93050E-02    1.38022E+04
 2.18750E-02    1.34054E+04
 2.35790E-02    1.32116E+04
 2.41760E-02    1.31159E+04
 2.47880E-02    1.29744E+04
 2.60580E-02    1.28139E+04
 2.70000E-02    1.26483E+04
 2.85000E-02    1.23540E+04
 3.18280E-02    1.20457E+04
 3.43070E-02    1.16471E+04
 4.08680E-02    1.11845E+04
 4.63090E-02    1.08157E+04
 5.24750E-02    1.05447E+04
 5.65620E-02    1.02232E+04
 6.73790E-02    9.92021E+03
 7.20000E-02    9.72174E+03
 7.95000E-02    9.56169E+03
 8.25000E-02    9.46608E+03
 8.65170E-02    9.27346E+03
 9.80370E-02    8.98631E+03
 1.11090E-01    8.77211E+03
 1.16790E-01    8.64746E+03
 1.22770E-01    8.52139E+03
 1.29070E-01    8.39856E+03
 1.35690E-01    8.28135E+03
 1.42640E-01    8.16396E+03
 1.49960E-01    8.04770E+03
 1.57640E-01    7.93137E+03
 1.65730E-01    7.81541E+03
 1.74220E-01    7.69991E+03
 1.83160E-01    7.58479E+03
 1.92550E-01    7.47042E+03
 2.02420E-01    7.37086E+03
 2.12800E-01    7.27385E+03
 2.23710E-01    7.17196E+03
 2.35180E-01    7.07450E+03
 2.47240E-01    6.92822E+03
 2.73240E-01    6.77763E+03
 2.87250E-01    6.70628E+03
 2.94520E-01    6.67303E+03
 2.97200E-01    6.65975E+03
 2.98500E-01    6.64387E+03
 3.01970E-01    6.55342E+03
 3.33730E-01    6.39333E+03
 3.68830E-01    6.26799E+03
 3.87740E-01    6.18694E+03
 4.07620E-01    6.08402E+03
 4.50490E-01    5.94879E+03
 4.97870E-01    5.84558E+03
 5.23400E-01    5.79044E+03
 5.50230E-01    5.73309E+03
 5.78440E-01    5.67280E+03
 6.08100E-01    5.61512E+03
 6.39280E-01    5.56531E+03
 6.72060E-01    5.51319E+03
 7.06510E-01    5.46003E+03
 7.42740E-01    5.41279E+03
 7.80820E-01    5.36439E+03
 8.20850E-01    5.31368E+03
 8.62940E-01    5.26594E+03
 9.07180E-01    5.21359E+03
 9.61640E-01    5.12929E+03
 1.00260E+00    4.96961E+03
 1.10800E+00    4.81047E+03
 1.16480E+00    4.71886E+03
 1.22460E+00    4.63613E+03
 1.28730E+00    4.55115E+03
 1.35340E+00    4.45929E+03
 1.42270E+00    4.35824E+03
 1.49570E+00    4.26197E+03
 1.57240E+00    4.17032E+03
 1.65300E+00    4.07975E+03
 1.73770E+00    3.99340E+03
 1.82680E+00    3.90701E+03
 1.92050E+00    3.82610E+03
 2.01900E+00    3.74152E+03
 2.12250E+00    3.65325E+03
 2.23130E+00    3.58216E+03
 2.30690E+00    3.53932E+03
 2.34570E+00    3.51748E+03
 2.36530E+00    3.50272E+03
 2.38520E+00    3.46528E+03
 2.46600E+00    3.39324E+03
 2.59240E+00    3.30626E+03
 2.72530E+00    3.21751E+03
 2.86500E+00    3.12758E+03
 3.01190E+00    3.03557E+03
 3.16640E+00    2.94655E+03
 3.32870E+00    2.81515E+03
 3.67880E+00    2.64548E+03
 4.06570E+00    2.48796E+03
 4.49330E+00    2.37886E+03
 4.72370E+00    2.31402E+03
 4.96590E+00    2.25223E+03
 5.22050E+00    2.19894E+03
 5.48810E+00    2.15112E+03
 5.76950E+00    2.11184E+03
 6.06530E+00    2.08108E+03
 6.37630E+00    2.06055E+03
 6.59240E+00    2.05195E+03
 6.70320E+00    2.04440E+03
 7.04690E+00    2.04209E+03
 7.40820E+00    2.04790E+03
 7.78800E+00    2.06379E+03
 8.18730E+00    2.08880E+03
 8.60710E+00    2.12100E+03
 9.04840E+00    2.16804E+03
 9.51230E+00    2.20687E+03
 1.00000E+01    2.25772E+03
 1.05130E+01    2.31187E+03
 1.10520E+01    2.36679E+03
 1.16180E+01    2.42263E+03
 1.22140E+01    2.47510E+03
 1.28400E+01    2.52492E+03
 1.34990E+01    2.55750E+03
 1.38400E+01    2.57855E+03
 1.41910E+01    2.59441E+03
 1.45500E+01    2.60984E+03
 1.49180E+01    2.62706E+03
 1.56830E+01    2.63990E+03
 1.64870E+01    2.63905E+03
