# n + Ag109 : (n,n')    
# jendl.ad   N.Iwamoto                         EVAL-Apr14
# uncertainties: n
# # energies =    91
#   E(MeV)       xs(mb) 
 8.88494E-02    0.00000E+00
 9.00000E-02    1.88872E-01
 1.00000E-01    2.24361E+00
 1.05000E-01    3.45580E+00
 1.10000E-01    4.67181E+00
 1.20000E-01    7.16932E+00
 1.30000E-01    9.72938E+00
 1.33969E-01    1.07938E+01
 1.40000E-01    1.26512E+01
 1.50000E-01    1.57772E+01
 1.60000E-01    1.90533E+01
 1.70000E-01    2.24472E+01
 1.80000E-01    2.59859E+01
 1.90000E-01    2.96830E+01
 2.00000E-01    3.35051E+01
 2.25000E-01    4.38054E+01
 2.50000E-01    5.48516E+01
 2.75000E-01    6.68217E+01
 3.00000E-01    7.94716E+01
 3.14264E-01    8.70974E+01
 4.00000E-01    6.13208E+02
 4.19056E-01    6.93271E+02
 4.23890E-01    7.16811E+02
 5.00000E-01    1.07045E+03
 6.00000E-01    1.31057E+03
 7.00000E-01    1.42311E+03
 7.08411E-01    1.43008E+03
 7.12539E-01    1.43963E+03
 7.13548E-01    1.44467E+03
 7.31059E-01    1.50157E+03
 7.42100E-01    1.54493E+03
 7.80664E-01    1.66781E+03
 7.96308E-01    1.70588E+03
 8.00000E-01    1.71429E+03
 8.70751E-01    1.82910E+03
 8.77523E-01    1.83748E+03
 8.78058E-01    1.83851E+03
 8.98243E-01    1.86732E+03
 9.00000E-01    1.86979E+03
 9.19438E-01    1.89461E+03
 9.20548E-01    1.89593E+03
 9.39421E-01    1.91629E+03
 1.00000E+00    1.96811E+03
 1.10000E+00    2.02495E+03
 1.20000E+00    2.07156E+03
 1.30000E+00    2.10715E+03
 1.40000E+00    2.14326E+03
 1.50000E+00    2.18367E+03
 1.60000E+00    2.19816E+03
 1.70000E+00    2.21704E+03
 1.80000E+00    2.24046E+03
 1.90000E+00    2.26836E+03
 2.00000E+00    2.30126E+03
 2.25000E+00    2.29473E+03
 2.50000E+00    2.31904E+03
 2.75000E+00    2.29406E+03
 3.00000E+00    2.28933E+03
 3.50000E+00    2.25441E+03
 4.00000E+00    2.23333E+03
 4.50000E+00    2.22670E+03
 5.00000E+00    2.22590E+03
 5.50000E+00    2.22013E+03
 6.00000E+00    2.20290E+03
 6.50000E+00    2.17439E+03
 7.00000E+00    2.13920E+03
 7.50000E+00    2.10295E+03
 8.00000E+00    2.07009E+03
 8.50000E+00    2.04310E+03
 9.00000E+00    2.02258E+03
 9.50000E+00    2.00049E+03
 1.00000E+01    1.79707E+03
 1.05000E+01    1.46843E+03
 1.10000E+01    1.18483E+03
 1.15000E+01    9.66341E+02
 1.20000E+01    8.04648E+02
 1.25000E+01    6.87982E+02
 1.30000E+01    6.04022E+02
 1.35000E+01    5.42525E+02
 1.40000E+01    4.96006E+02
 1.45000E+01    4.59185E+02
 1.50000E+01    4.29411E+02
 1.55000E+01    4.04507E+02
 1.60000E+01    3.83068E+02
 1.65000E+01    3.64151E+02
 1.70000E+01    3.48598E+02
 1.75000E+01    3.33601E+02
 1.80000E+01    3.21258E+02
 1.85000E+01    3.09833E+02
 1.90000E+01    2.99603E+02
 1.95000E+01    2.90097E+02
 2.00000E+01    2.81395E+02
