# n + Sm152 : (n,tot)   
# jendl4.0   N.Iwamoto                         EVAL-Nov09
# uncertainties: n
# # energies =   171
#   E(MeV)       xs(mb) 
 1.00000E-11    2.21747E+06
 1.00000E-07    8.10203E+04
 4.13990E-07    5.76713E+04
 5.31580E-07    5.34533E+04
 6.82560E-07    5.02830E+04
 8.76420E-07    4.82583E+04
 1.12540E-06    4.76220E+04
 1.44500E-06    4.88620E+04
 1.85540E-06    5.29484E+04
 2.37240E-06    6.23704E+04
 3.05900E-06    8.38417E+04
 3.92790E-06    1.40912E+05
 5.04350E-06    3.90773E+05
 6.47600E-06    2.99022E+07
 8.31530E-06    3.56576E+06
 1.06770E-05    2.12788E+05
 1.37100E-05    7.74073E+04
 1.76030E-05    4.14418E+04
 2.26030E-05    2.65717E+04
 2.92030E-05    1.89315E+04
 3.72670E-05    1.42069E+04
 4.78510E-05    1.04103E+04
 6.14420E-05    2.35947E+04
 7.88930E-05    4.51068E+05
 1.01300E-04    1.32201E+04
 1.30070E-04    1.07109E+05
 1.67020E-04    1.79882E+04
 2.14450E-04    1.31022E+05
 2.75360E-04    6.32757E+04
 3.53580E-04    1.90476E+04
 4.54000E-04    1.99136E+04
 5.82950E-04    2.75468E+04
 7.48520E-04    1.07770E+05
 9.61120E-04    2.12886E+04
 1.23410E-03    4.00877E+04
 1.58460E-03    2.16007E+04
 2.03470E-03    1.88465E+04
 2.24870E-03    1.56085E+04
 2.48520E-03    8.43065E+03
 2.61260E-03    5.52399E+04
 2.74650E-03    2.53283E+04
 3.03540E-03    1.92004E+04
 3.35460E-03    3.21348E+04
 3.70740E-03    2.14477E+04
 4.30740E-03    2.48559E+04
 5.53080E-03    3.02423E+04
 7.10170E-03    2.72267E+04
 9.11880E-03    2.45637E+04
 1.17090E-02    2.22391E+04
 1.50340E-02    2.01413E+04
 1.93050E-02    1.87022E+04
 2.18750E-02    1.80022E+04
 2.35790E-02    1.76625E+04
 2.41760E-02    1.74953E+04
 2.47880E-02    1.72479E+04
 2.60580E-02    1.69703E+04
 2.70000E-02    1.66834E+04
 2.85000E-02    1.61731E+04
 3.18280E-02    1.56226E+04
 3.43070E-02    1.49159E+04
 4.08680E-02    1.41226E+04
 4.63090E-02    1.35060E+04
 5.24750E-02    1.30314E+04
 5.65620E-02    1.24697E+04
 6.73790E-02    1.19579E+04
 7.20000E-02    1.16261E+04
 7.95000E-02    1.13596E+04
 8.25000E-02    1.11976E+04
 8.65170E-02    1.08749E+04
 9.80370E-02    1.04347E+04
 1.11090E-01    1.01525E+04
 1.16790E-01    9.99481E+03
 1.22770E-01    9.83967E+03
 1.29070E-01    9.68700E+03
 1.35690E-01    9.53685E+03
 1.42640E-01    9.38883E+03
 1.49960E-01    9.24508E+03
 1.57640E-01    9.11098E+03
 1.65730E-01    8.99457E+03
 1.74220E-01    8.88058E+03
 1.83160E-01    8.76802E+03
 1.92550E-01    8.65718E+03
 2.02420E-01    8.55253E+03
 2.12800E-01    8.44628E+03
 2.23710E-01    8.33504E+03
 2.35180E-01    8.23083E+03
 2.47240E-01    8.10525E+03
 2.73240E-01    8.01031E+03
 2.87250E-01    7.96082E+03
 2.94520E-01    7.93772E+03
 2.97200E-01    7.92849E+03
 2.98500E-01    7.91800E+03
 3.01970E-01    7.85434E+03
 3.33730E-01    7.73243E+03
 3.68830E-01    7.64106E+03
 3.87740E-01    7.58813E+03
 4.07620E-01    7.55410E+03
 4.50490E-01    7.52226E+03
 4.97870E-01    7.49632E+03
 5.23400E-01    7.47783E+03
 5.50230E-01    7.45841E+03
 5.78440E-01    7.43852E+03
 6.08100E-01    7.42827E+03
 6.39280E-01    7.42165E+03
 6.72060E-01    7.41469E+03
 7.06510E-01    7.40738E+03
 7.42740E-01    7.39970E+03
 7.80820E-01    7.39313E+03
 8.20850E-01    7.38758E+03
 8.62940E-01    7.38173E+03
 9.07180E-01    7.37506E+03
 9.61640E-01    7.36859E+03
 1.00260E+00    7.35281E+03
 1.10800E+00    7.32227E+03
 1.16480E+00    7.29942E+03
 1.22460E+00    7.27541E+03
 1.28730E+00    7.24633E+03
 1.35340E+00    7.20727E+03
 1.42270E+00    7.16591E+03
 1.49570E+00    7.12240E+03
 1.57240E+00    7.07669E+03
 1.65300E+00    7.02374E+03
 1.73770E+00    6.96292E+03
 1.82680E+00    6.89895E+03
 1.92050E+00    6.83170E+03
 2.01900E+00    6.76101E+03
 2.12250E+00    6.68519E+03
 2.23130E+00    6.61804E+03
 2.30690E+00    6.57638E+03
 2.34570E+00    6.55515E+03
 2.36530E+00    6.54080E+03
 2.38520E+00    6.50438E+03
 2.46600E+00    6.42936E+03
 2.59240E+00    6.33521E+03
 2.72530E+00    6.23623E+03
 2.86500E+00    6.13217E+03
 3.01190E+00    6.02274E+03
 3.16640E+00    5.90789E+03
 3.32870E+00    5.74138E+03
 3.67880E+00    5.51257E+03
 4.06570E+00    5.29161E+03
 4.49330E+00    5.13572E+03
 4.72370E+00    5.04412E+03
 4.96590E+00    4.95768E+03
 5.22050E+00    4.88852E+03
 5.48810E+00    4.82689E+03
 5.76950E+00    4.78175E+03
 6.06530E+00    4.75093E+03
 6.37630E+00    4.73425E+03
 6.59240E+00    4.72724E+03
 6.70320E+00    4.72476E+03
 7.04690E+00    4.73239E+03
 7.40820E+00    4.74761E+03
 7.78800E+00    4.77146E+03
 8.18730E+00    4.80307E+03
 8.60710E+00    4.83687E+03
 9.04840E+00    4.87943E+03
 9.51230E+00    4.92624E+03
 1.00000E+01    4.97688E+03
 1.05130E+01    5.03102E+03
 1.10520E+01    5.08549E+03
 1.16180E+01    5.13751E+03
 1.22140E+01    5.18382E+03
 1.28400E+01    5.22126E+03
 1.34990E+01    5.24197E+03
 1.38400E+01    5.25151E+03
 1.41910E+01    5.25706E+03
 1.45500E+01    5.25863E+03
 1.49180E+01    5.25312E+03
 1.56830E+01    5.23085E+03
 1.64870E+01    5.19083E+03
