# n + Sm152 : (n,n'05)  
# jendl4.0   N.Iwamoto                         EVAL-Nov09
# uncertainties: n
# # energies =    85
#   E(MeV)       xs(mb) 
 8.15834E-01    0.00000E+00
 9.00000E-01    3.20651E+02
 9.69750E-01    3.90404E+02
 1.00000E+00    3.94601E+02
 1.02976E+00    4.06858E+02
 1.04802E+00    4.14109E+02
 1.09004E+00    4.19844E+02
 1.09309E+00    4.19434E+02
 1.10000E+00    4.06404E+02
 1.13282E+00    3.98138E+02
 1.20000E+00    3.98995E+02
 1.22959E+00    3.99220E+02
 1.23414E+00    3.99060E+02
 1.24204E+00    3.89405E+02
 1.29850E+00    3.68060E+02
 1.30000E+00    3.65574E+02
 1.30134E+00    3.64627E+02
 1.31920E+00    3.49429E+02
 1.38085E+00    3.34413E+02
 1.40000E+00    3.31339E+02
 1.50000E+00    3.16263E+02
 1.51561E+00    3.13755E+02
 1.52082E+00    3.12917E+02
 1.53995E+00    3.06739E+02
 1.56994E+00    2.97659E+02
 1.58992E+00    2.93039E+02
 1.60000E+00    2.89966E+02
 1.61991E+00    2.85305E+02
 1.62349E+00    2.84510E+02
 1.66084E+00    2.76928E+02
 1.66981E+00    2.74071E+02
 1.67745E+00    2.71453E+02
 1.69173E+00    2.68006E+02
 1.69326E+00    2.67103E+02
 1.70000E+00    2.64769E+02
 1.73967E+00    2.55750E+02
 1.74173E+00    2.55345E+02
 1.74753E+00    2.53777E+02
 1.76870E+00    2.48394E+02
 1.77591E+00    2.44780E+02
 1.78085E+00    2.43289E+02
 1.78803E+00    2.39411E+02
 1.80000E+00    2.34716E+02
 1.81596E+00    2.30289E+02
 1.83328E+00    2.25525E+02
 1.90000E+00    2.10373E+02
 2.00000E+00    1.89505E+02
 2.25000E+00    1.32998E+02
 2.50000E+00    9.58520E+01
 2.75000E+00    6.33957E+01
 3.00000E+00    4.29190E+01
 3.50000E+00    1.84726E+01
 4.00000E+00    7.81060E+00
 4.50000E+00    3.29843E+00
 5.00000E+00    1.42288E+00
 5.50000E+00    6.51271E-01
 6.00000E+00    3.34184E-01
 6.50000E+00    2.01549E-01
 7.00000E+00    1.44939E-01
 7.50000E+00    1.19209E-01
 8.00000E+00    1.04885E-01
 8.50000E+00    9.50379E-02
 9.00000E+00    8.71204E-02
 9.50000E+00    8.02475E-02
 1.00000E+01    7.40896E-02
 1.05000E+01    6.85256E-02
 1.10000E+01    6.34643E-02
 1.15000E+01    5.88086E-02
 1.20000E+01    5.44856E-02
 1.25000E+01    5.04288E-02
 1.30000E+01    4.65887E-02
 1.35000E+01    4.29329E-02
 1.40000E+01    4.03961E-02
 1.45000E+01    3.82097E-02
 1.50000E+01    3.61866E-02
 1.55000E+01    3.75560E-02
 1.60000E+01    3.44239E-02
 1.65000E+01    3.08674E-02
 1.70000E+01    2.94217E-02
 1.75000E+01    2.98387E-02
 1.80000E+01    3.10061E-02
 1.85000E+01    2.83314E-02
 1.90000E+01    2.42546E-02
 1.95000E+01    2.31997E-02
 2.00000E+01    2.22987E-02
