# n + Sm152 : (n,n'09)  
# jendl4.0   N.Iwamoto                         EVAL-Nov09
# uncertainties: n
# # energies =    79
#   E(MeV)       xs(mb) 
 1.09004E+00    0.00000E+00
 1.09309E+00    2.20478E+01
 1.10000E+00    3.51090E+01
 1.13282E+00    5.84149E+01
 1.20000E+00    7.77944E+01
 1.22959E+00    8.26978E+01
 1.23414E+00    8.34040E+01
 1.24204E+00    8.44270E+01
 1.29850E+00    8.89592E+01
 1.30000E+00    8.77789E+01
 1.30134E+00    8.74544E+01
 1.31920E+00    8.61845E+01
 1.38085E+00    8.54967E+01
 1.40000E+00    8.53172E+01
 1.50000E+00    8.51763E+01
 1.51561E+00    8.48878E+01
 1.52082E+00    8.47901E+01
 1.53995E+00    8.28848E+01
 1.56994E+00    8.08708E+01
 1.58992E+00    8.00273E+01
 1.60000E+00    7.96180E+01
 1.61991E+00    7.89170E+01
 1.62349E+00    7.87979E+01
 1.66084E+00    7.76870E+01
 1.66981E+00    7.71021E+01
 1.67745E+00    7.60144E+01
 1.69173E+00    7.51535E+01
 1.69326E+00    7.47708E+01
 1.70000E+00    7.41267E+01
 1.73967E+00    7.16762E+01
 1.74173E+00    7.15453E+01
 1.74753E+00    7.11692E+01
 1.76870E+00    6.90851E+01
 1.77591E+00    6.82204E+01
 1.78085E+00    6.78103E+01
 1.78803E+00    6.69114E+01
 1.80000E+00    6.53850E+01
 1.81596E+00    6.40507E+01
 1.83328E+00    6.28342E+01
 1.90000E+00    5.91174E+01
 2.00000E+00    5.42149E+01
 2.25000E+00    3.93112E+01
 2.50000E+00    2.83002E+01
 2.75000E+00    1.85486E+01
 3.00000E+00    1.25451E+01
 3.50000E+00    5.32739E+00
 4.00000E+00    2.29857E+00
 4.50000E+00    1.05062E+00
 5.00000E+00    5.34561E-01
 5.50000E+00    3.17976E-01
 6.00000E+00    2.23764E-01
 6.50000E+00    1.79406E-01
 7.00000E+00    1.55317E-01
 7.50000E+00    1.39561E-01
 8.00000E+00    1.27342E-01
 8.50000E+00    1.16851E-01
 9.00000E+00    1.07493E-01
 9.50000E+00    9.91195E-02
 1.00000E+01    9.16620E-02
 1.05000E+01    8.50842E-02
 1.10000E+01    7.92957E-02
 1.15000E+01    7.41932E-02
 1.20000E+01    6.96546E-02
 1.25000E+01    6.55806E-02
 1.30000E+01    6.18852E-02
 1.35000E+01    5.85042E-02
 1.40000E+01    5.53789E-02
 1.45000E+01    5.24788E-02
 1.50000E+01    4.97850E-02
 1.55000E+01    4.72352E-02
 1.60000E+01    4.49320E-02
 1.65000E+01    4.26931E-02
 1.70000E+01    4.06665E-02
 1.75000E+01    3.87840E-02
 1.80000E+01    3.70176E-02
 1.85000E+01    3.52777E-02
 1.90000E+01    3.36788E-02
 1.95000E+01    3.22057E-02
 2.00000E+01    3.08895E-02
