# n + Cs135 : (n,el)    
# jendl4.0   N.Iwamoto,H.Matsunobu             EVAL-Apr09
# uncertainties: n
# # energies =   171
#   E(MeV)       xs(mb) 
 1.00000E-11    7.78881E+03
 1.00000E-07    4.81634E+03
 4.13990E-07    4.80387E+03
 5.31580E-07    4.79754E+03
 6.82560E-07    4.78975E+03
 8.76420E-07    4.78030E+03
 1.12540E-06    4.76818E+03
 1.44500E-06    4.75262E+03
 1.85540E-06    4.73284E+03
 2.37240E-06    4.70749E+03
 3.05900E-06    4.67732E+03
 3.92790E-06    4.63956E+03
 5.04350E-06    4.59106E+03
 6.47600E-06    4.52880E+03
 8.31530E-06    4.44964E+03
 1.06770E-05    4.35301E+03
 1.37100E-05    4.22982E+03
 1.76030E-05    4.06944E+03
 2.26030E-05    3.81778E+03
 2.92030E-05    3.27172E+03
 3.72670E-05    3.03425E+04
 4.78510E-05    5.05213E+03
 6.14420E-05    4.27825E+03
 7.88930E-05    4.08466E+03
 1.01300E-04    3.78814E+03
 1.30070E-04    3.44012E+03
 1.67020E-04    2.18835E+04
 2.14450E-04    2.03401E+04
 2.75360E-04    1.96616E+04
 3.53580E-04    1.79426E+04
 4.54000E-04    1.63384E+04
 5.82950E-04    1.48707E+04
 7.48520E-04    1.35084E+04
 9.61120E-04    1.23222E+04
 1.23410E-03    1.13432E+04
 1.58460E-03    1.04441E+04
 2.03470E-03    9.85525E+03
 2.24870E-03    9.53488E+03
 2.48520E-03    9.30115E+03
 2.61260E-03    9.14876E+03
 2.74650E-03    8.92532E+03
 3.03540E-03    8.63526E+03
 3.35460E-03    8.35476E+03
 3.70740E-03    8.02341E+03
 4.30740E-03    7.56996E+03
 5.53080E-03    7.04538E+03
 7.10170E-03    6.58981E+03
 9.11880E-03    6.20575E+03
 1.17090E-02    5.90429E+03
 1.50340E-02    5.62289E+03
 1.93050E-02    5.42590E+03
 2.18750E-02    5.33723E+03
 2.35790E-02    5.29403E+03
 2.41760E-02    5.27271E+03
 2.47880E-02    5.24042E+03
 2.60580E-02    5.20399E+03
 2.70000E-02    5.16629E+03
 2.85000E-02    5.10078E+03
 3.18280E-02    5.03979E+03
 3.43070E-02    4.96210E+03
 4.08680E-02    4.86979E+03
 4.63090E-02    4.79641E+03
 5.24750E-02    4.75670E+03
 5.65620E-02    4.71489E+03
 6.73790E-02    4.67509E+03
 7.20000E-02    4.65425E+03
 7.95000E-02    4.63936E+03
 8.25000E-02    4.63384E+03
 8.65170E-02    4.62231E+03
 9.80370E-02    4.61395E+03
 1.11090E-01    4.61862E+03
 1.16790E-01    4.62149E+03
 1.22770E-01    4.62430E+03
 1.29070E-01    4.63228E+03
 1.35690E-01    4.64932E+03
 1.42640E-01    4.66653E+03
 1.49960E-01    4.68396E+03
 1.57640E-01    4.70115E+03
 1.65730E-01    4.71829E+03
 1.74220E-01    4.73628E+03
 1.83160E-01    4.75519E+03
 1.92550E-01    4.77506E+03
 2.02420E-01    4.80190E+03
 2.12800E-01    4.83716E+03
 2.23710E-01    4.87424E+03
 2.35180E-01    4.91322E+03
 2.47240E-01    4.94730E+03
 2.73240E-01    4.95754E+03
 2.87250E-01    4.97452E+03
 2.94520E-01    4.98254E+03
 2.97200E-01    4.98574E+03
 2.98500E-01    4.98956E+03
 3.01970E-01    5.02978E+03
 3.33730E-01    5.11403E+03
 3.68830E-01    5.18274E+03
 3.87740E-01    5.23052E+03
 4.07620E-01    5.30601E+03
 4.50490E-01    5.41546E+03
 4.97870E-01    5.50465E+03
 5.23400E-01    5.56595E+03
 5.50230E-01    5.62429E+03
 5.78440E-01    5.68529E+03
 6.08100E-01    5.74318E+03
 6.39280E-01    5.78618E+03
 6.72060E-01    5.83028E+03
 7.06510E-01    5.87665E+03
 7.42740E-01    5.92540E+03
 7.80820E-01    5.95789E+03
 8.20850E-01    5.96860E+03
 8.62940E-01    5.98463E+03
 9.07180E-01    6.00293E+03
 9.61640E-01    6.02069E+03
 1.00260E+00    6.03362E+03
 1.10800E+00    6.03256E+03
 1.16480E+00    6.02411E+03
 1.22460E+00    5.97818E+03
 1.28730E+00    5.92090E+03
 1.35340E+00    5.86067E+03
 1.42270E+00    5.79738E+03
 1.49570E+00    5.70854E+03
 1.57240E+00    5.58697E+03
 1.65300E+00    5.45914E+03
 1.73770E+00    5.33248E+03
 1.82680E+00    5.20660E+03
 1.92050E+00    5.07423E+03
 2.01900E+00    4.92390E+03
 2.12250E+00    4.75652E+03
 2.23130E+00    4.61483E+03
 2.30690E+00    4.52925E+03
 2.34570E+00    4.48562E+03
 2.36530E+00    4.45615E+03
 2.38520E+00    4.38134E+03
 2.46600E+00    4.23323E+03
 2.59240E+00    4.06110E+03
 2.72530E+00    3.88376E+03
 2.86500E+00    3.70200E+03
 3.01190E+00    3.53339E+03
 3.16640E+00    3.37698E+03
 3.32870E+00    3.16040E+03
 3.67880E+00    2.91493E+03
 4.06570E+00    2.72188E+03
 4.49330E+00    2.60468E+03
 4.72370E+00    2.54396E+03
 4.96590E+00    2.48984E+03
 5.22050E+00    2.44883E+03
 5.48810E+00    2.41609E+03
 5.76950E+00    2.39435E+03
 6.06530E+00    2.38563E+03
 6.37630E+00    2.38468E+03
 6.59240E+00    2.39124E+03
 6.70320E+00    2.40351E+03
 7.04690E+00    2.43528E+03
 7.40820E+00    2.47948E+03
 7.78800E+00    2.53814E+03
 8.18730E+00    2.60969E+03
 8.60710E+00    2.69295E+03
 9.04840E+00    2.76893E+03
 9.51230E+00    2.85238E+03
 1.00000E+01    2.92968E+03
 1.05130E+01    3.00137E+03
 1.10520E+01    3.06026E+03
 1.16180E+01    3.10882E+03
 1.22140E+01    3.13824E+03
 1.28400E+01    3.15521E+03
 1.34990E+01    3.15467E+03
 1.38400E+01    3.15207E+03
 1.41910E+01    3.14083E+03
 1.45500E+01    3.12812E+03
 1.49180E+01    3.10080E+03
 1.56830E+01    3.05025E+03
 1.64870E+01    2.98507E+03
