# n + Gd152 : (n,xa)    
# jendl4.0   N.Iwamoto,A.Zukeran,K.Shibata     EVAL-Dec09
# 
# # energies =   105
#   E(MeV)        xs(mb) 
 1.05000E-01    4.36756E-03
 1.10000E-01    4.37215E-03
 1.20000E-01    4.40712E-03
 1.30000E-01    4.48549E-03
 1.40000E-01    4.55599E-03
 1.50000E-01    4.62907E-03
 1.60000E-01    4.71390E-03
 1.70000E-01    4.79874E-03
 1.80000E-01    4.89180E-03
 1.90000E-01    4.98953E-03
 2.00000E-01    5.08726E-03
 2.25000E-01    5.39242E-03
 2.50000E-01    5.70172E-03
 2.75000E-01    6.04595E-03
 3.00000E-01    6.40387E-03
 3.46565E-01    7.16403E-03
 4.00000E-01    6.17206E-03
 5.00000E-01    7.11534E-03
 6.00000E-01    8.49410E-03
 6.19485E-01    8.76502E-03
 7.00000E-01    9.88076E-03
 7.60411E-01    1.11391E-02
 8.00000E-01    1.19276E-02
 9.00000E-01    1.43835E-02
 9.36723E-01    1.55411E-02
 1.00000E+00    1.59314E-02
 1.05481E+00    1.75145E-02
 1.10000E+00    1.85090E-02
 1.11653E+00    1.89427E-02
 1.13065E+00    1.91144E-02
 1.20000E+00    1.99576E-02
 1.23553E+00    2.11711E-02
 1.29077E+00    2.26574E-02
 1.30000E+00    2.29080E-02
 1.32338E+00    2.35482E-02
 1.32717E+00    2.33805E-02
 1.40000E+00    2.47358E-02
 1.44354E+00    2.65011E-02
 1.47023E+00    2.70003E-02
 1.48024E+00    2.70573E-02
 1.50000E+00    2.75102E-02
 1.56050E+00    2.99162E-02
 1.60000E+00    3.12433E-02
 1.61626E+00    3.17896E-02
 1.65432E+00    3.34941E-02
 1.67914E+00    3.40013E-02
 1.67915E+00    3.40016E-02
 1.70000E+00    3.46931E-02
 1.70365E+00    3.48141E-02
 1.75838E+00    3.73603E-02
 1.76764E+00    3.77596E-02
 1.78333E+00    3.81341E-02
 1.80000E+00    3.85320E-02
 1.81966E+00    3.92176E-02
 1.85183E+00    4.14963E-02
 1.87394E+00    4.20707E-02
 1.87441E+00    4.20829E-02
 1.89278E+00    4.25601E-02
 1.90000E+00    4.27914E-02
 1.92814E+00    4.38633E-02
 1.95405E+00    4.58949E-02
 1.97503E+00    4.65453E-02
 1.98879E+00    4.69719E-02
 2.00000E+00    4.73162E-02
 2.01115E+00    4.77047E-02
 2.01116E+00    4.77051E-02
 2.02499E+00    4.82481E-02
 2.25000E+00    6.28209E-02
 2.50000E+00    8.12859E-02
 2.75000E+00    1.02141E-01
 3.00000E+00    1.25823E-01
 3.50000E+00    1.76030E-01
 4.00000E+00    2.28464E-01
 4.50000E+00    2.81298E-01
 5.00000E+00    3.35162E-01
 5.50000E+00    3.91206E-01
 6.00000E+00    4.52823E-01
 6.50000E+00    5.27561E-01
 7.00000E+00    6.27578E-01
 7.50000E+00    7.73882E-01
 8.00000E+00    9.88344E-01
 8.50000E+00    1.29120E+00
 9.00000E+00    1.65740E+00
 9.50000E+00    1.96663E+00
 1.00000E+01    2.22599E+00
 1.05000E+01    2.50607E+00
 1.10000E+01    2.88447E+00
 1.15000E+01    3.34126E+00
 1.20000E+01    3.88810E+00
 1.25000E+01    4.51522E+00
 1.30000E+01    5.20887E+00
 1.35000E+01    5.95679E+00
 1.40000E+01    6.74756E+00
 1.45000E+01    7.57320E+00
 1.50000E+01    8.42797E+00
 1.55000E+01    9.31596E+00
 1.60000E+01    1.02301E+01
 1.65000E+01    1.11866E+01
 1.70000E+01    1.21722E+01
 1.75000E+01    1.31831E+01
 1.80000E+01    1.42128E+01
 1.85000E+01    1.54173E+01
 1.90000E+01    1.72214E+01
 1.95000E+01    2.10439E+01
 2.00000E+01    2.72030E+01
