# n + N  14 : (n,n'04)  
# jendl4.0   Y.KANDA(KYU) T.MURATA(NAIG)+      EVAL-JUN89
# uncertainties: n
# # energies =    94
#   E(MeV)       xs(mb) 
 5.47369E+00    0.00000E+00
 5.48700E+00    1.68579E+00
 5.51450E+00    3.77253E+00
 5.54190E+00    4.71111E+00
 5.56940E+00    5.97395E+00
 5.62850E+00    1.00792E+01
 5.68760E+00    1.63418E+01
 5.74670E+00    2.35049E+01
 5.80580E+00    2.83392E+01
 5.85650E+00    2.93614E+01
 5.90720E+00    2.85242E+01
 5.95780E+00    2.72738E+01
 6.00850E+00    2.66398E+01
 6.02330E+00    2.66474E+01
 6.03810E+00    2.68466E+01
 6.05290E+00    2.72903E+01
 6.06760E+00    2.80422E+01
 6.10770E+00    3.25037E+01
 6.14790E+00    4.29563E+01
 6.18800E+00    5.98343E+01
 6.22810E+00    6.80394E+01
 6.27030E+00    5.77499E+01
 6.31250E+00    4.47240E+01
 6.35480E+00    3.51661E+01
 6.43080E+00    2.16355E+01
 6.46450E+00    1.66806E+01
 6.49830E+00    2.19033E+01
 6.53210E+00    2.85607E+01
 6.61660E+00    2.93793E+01
 6.70100E+00    2.84355E+01
 6.78550E+00    2.83444E+01
 6.86990E+00    2.91288E+01
 6.95440E+00    3.09576E+01
 7.03880E+00    3.43599E+01
 7.12330E+00    4.03023E+01
 7.20770E+00    5.00952E+01
 7.26260E+00    5.88163E+01
 7.31750E+00    6.81891E+01
 7.37240E+00    7.52984E+01
 7.42730E+00    7.71608E+01
 7.47800E+00    7.40889E+01
 7.52860E+00    6.84582E+01
 7.57930E+00    6.21964E+01
 7.63000E+00    5.63065E+01
 7.69750E+00    4.95489E+01
 7.76510E+00    4.46879E+01
 7.83260E+00    4.50152E+01
 7.90020E+00    5.29438E+01
 7.94240E+00    5.82438E+01
 7.98470E+00    6.18594E+01
 8.02680E+00    6.40078E+01
 8.06910E+00    6.52798E+01
 8.14510E+00    6.64126E+01
 8.50000E+00    5.69330E+01
 9.00000E+00    5.91119E+01
 9.50000E+00    5.97096E+01
 9.55181E+00    5.91309E+01
 9.80246E+00    5.80112E+01
 9.86850E+00    5.74897E+01
 1.00135E+01    5.61743E+01
 1.01950E+01    5.50163E+01
 1.02435E+01    5.45780E+01
 1.02550E+01    5.48698E+01
 1.03449E+01    5.36098E+01
 1.04462E+01    5.23946E+01
 1.05000E+01    5.15752E+01
 1.09192E+01    4.83337E+01
 1.09670E+01    4.79427E+01
 1.10000E+01    4.73646E+01
 1.15000E+01    4.34253E+01
 1.15887E+01    4.29257E+01
 1.18460E+01    4.11265E+01
 1.18674E+01    4.08034E+01
 1.20000E+01    3.93108E+01
 1.20496E+01    3.89467E+01
 1.21032E+01    3.80704E+01
 1.21751E+01    3.74430E+01
 1.23290E+01    3.63175E+01
 1.24730E+01    3.47557E+01
 1.25000E+01    3.45538E+01
 1.25970E+01    3.39602E+01
 1.27356E+01    3.26104E+01
 1.28650E+01    3.18456E+01
 1.30000E+01    3.06979E+01
 1.31330E+01    3.00607E+01
 1.32716E+01    2.91082E+01
 1.34010E+01    2.85602E+01
 1.35000E+01    2.79274E+01
 1.40000E+01    2.60958E+01
 1.42600E+01    2.52588E+01
 1.48000E+01    2.50249E+01
 1.65000E+01    2.44635E+01
 1.80000E+01    2.37636E+01
 2.00000E+01    2.25575E+01
