# n + Re187 : (n,xp)    
# jendl.ad   N.Iwamoto                         EVAL-Apr14
# 
# # energies =    99
#   E(MeV)        xs(mb) 
 1.05000E-01    0.00000E+00
 1.10000E-01    0.00000E+00
 1.20000E-01    0.00000E+00
 1.30000E-01    0.00000E+00
 1.34967E-01    0.00000E+00
 1.40000E-01    0.00000E+00
 1.50000E-01    0.00000E+00
 1.60000E-01    0.00000E+00
 1.70000E-01    0.00000E+00
 1.80000E-01    0.00000E+00
 1.90000E-01    0.00000E+00
 2.00000E-01    0.00000E+00
 2.07357E-01    0.00000E+00
 2.25000E-01    0.00000E+00
 2.50000E-01    0.00000E+00
 2.75000E-01    0.00000E+00
 3.00000E-01    0.00000E+00
 3.04765E-01    0.00000E+00
 3.92104E-01    0.00000E+00
 4.00000E-01    0.00000E+00
 5.00000E-01    0.00000E+00
 5.14527E-01    0.00000E+00
 5.85130E-01    6.49292E-20
 5.92314E-01    7.36189E-20
 5.92315E-01    7.36201E-20
 6.00000E-01    8.29158E-20
 6.21698E-01    1.42026E-19
 6.28888E-01    1.69673E-19
 6.50722E-01    2.53631E-19
 6.89475E-01    4.03830E-19
 7.00000E-01    4.45383E-19
 7.22608E-01    5.34640E-19
 7.47009E-01    6.50323E-19
 7.71942E-01    7.89882E-19
 7.77070E-01    8.18585E-19
 8.00000E-01    9.46933E-19
 8.20970E-01    1.06431E-18
 8.21408E-01    1.06676E-18
 8.31251E-01    1.12186E-18
 8.49418E-01    1.23269E-18
 8.69305E-01    1.35972E-18
 8.84204E-01    1.45745E-18
 9.00000E-01    1.56411E-18
 9.38657E-01    1.87489E-18
 9.53115E-01    1.99113E-18
 9.65360E-01    2.08957E-18
 9.74530E-01    2.16514E-18
 9.84282E-01    2.24566E-18
 1.00000E+00    2.37543E-18
 1.00633E+00    2.42770E-18
 1.00855E+00    2.44603E-18
 1.10000E+00    5.17621E-18
 1.20000E+00    9.33925E-18
 1.30000E+00    1.42198E-17
 1.40000E+00    2.16181E-17
 1.50000E+00    2.94216E-17
 1.60000E+00    4.16640E-17
 1.70000E+00    7.56970E-17
 1.80000E+00    3.73780E-16
 1.90000E+00    2.93880E-15
 2.00000E+00    2.06320E-14
 2.25000E+00    1.19800E-12
 2.50000E+00    3.02850E-11
 2.75000E+00    3.95480E-10
 3.00000E+00    3.27210E-09
 3.50000E+00    8.34710E-08
 4.00000E+00    8.67250E-07
 4.50000E+00    4.92308E-06
 5.00000E+00    1.81968E-05
 5.50000E+00    4.94694E-05
 6.00000E+00    1.10931E-04
 6.50000E+00    2.35601E-04
 7.00000E+00    5.30042E-04
 7.50000E+00    1.37949E-03
 8.00000E+00    3.74315E-03
 8.50000E+00    9.76985E-03
 9.00000E+00    2.36029E-02
 9.50000E+00    5.22733E-02
 1.00000E+01    1.06242E-01
 1.05000E+01    1.99158E-01
 1.10000E+01    3.46768E-01
 1.15000E+01    5.65535E-01
 1.20000E+01    8.71069E-01
 1.25000E+01    1.27762E+00
 1.30000E+01    1.79788E+00
 1.35000E+01    2.44295E+00
 1.40000E+01    3.22234E+00
 1.45000E+01    4.14384E+00
 1.50000E+01    5.21312E+00
 1.55000E+01    6.43417E+00
 1.60000E+01    7.80768E+00
 1.65000E+01    9.33206E+00
 1.70000E+01    1.10083E+01
 1.75000E+01    1.28299E+01
 1.80000E+01    1.47876E+01
 1.85000E+01    1.68844E+01
 1.90000E+01    1.91014E+01
 1.95000E+01    2.14385E+01
 2.00000E+01    2.38848E+01
