# n + Pm147 : (n,xp)    
# jendl4.0   N.Iwamoto                         EVAL-Dec09
# 
# # energies =    88
#   E(MeV)        xs(mb) 
 9.17255E-02    0.00000E+00
 1.00000E-01    0.00000E+00
 1.05000E-01    0.00000E+00
 1.10000E-01    0.00000E+00
 1.20000E-01    8.70238E-16
 1.30000E-01    2.43373E-15
 1.40000E-01    3.99721E-15
 1.50000E-01    5.56070E-15
 1.60000E-01    7.12419E-15
 1.70000E-01    9.01164E-15
 1.80000E-01    1.11867E-14
 1.90000E-01    1.33618E-14
 2.00000E-01    1.55369E-14
 2.25000E-01    2.09746E-14
 2.50000E-01    2.68132E-14
 2.75000E-01    3.37316E-14
 3.00000E-01    4.06500E-14
 3.52403E-01    6.53110E-14
 3.82609E-01    8.05277E-14
 4.00000E-01    8.92888E-14
 4.11002E-01    9.48312E-14
 4.11003E-01    9.48317E-14
 4.13328E-01    9.60029E-14
 4.92609E-01    1.37733E-13
 5.00000E-01    1.41672E-13
 5.03433E-01    1.43502E-13
 5.34656E-01    1.60143E-13
 6.00000E-01    1.95086E-13
 6.24257E-01    2.08165E-13
 6.37145E-01    2.15195E-13
 6.45703E-01    2.20092E-13
 6.53758E-01    2.24701E-13
 6.64531E-01    2.30866E-13
 6.71781E-01    2.35014E-13
 6.85132E-01    2.42654E-13
 6.90599E-01    2.45782E-13
 7.00000E-01    2.51186E-13
 8.00000E-01    3.18933E-13
 9.00000E-01    3.87591E-13
 1.00000E+00    4.59288E-13
 1.10000E+00    5.69833E-13
 1.20000E+00    7.26040E-13
 1.30000E+00    2.88640E-12
 1.40000E+00    1.77370E-11
 1.50000E+00    1.01560E-10
 1.60000E+00    4.86540E-10
 1.70000E+00    1.98370E-09
 1.80000E+00    7.04430E-09
 1.90000E+00    2.21610E-08
 2.00000E+00    6.27170E-08
 2.25000E+00    5.85600E-07
 2.50000E+00    3.52080E-06
 2.75000E+00    1.48434E-05
 3.00000E+00    4.85276E-05
 3.50000E+00    2.97523E-04
 4.00000E+00    1.06831E-03
 4.50000E+00    2.69165E-03
 5.00000E+00    5.40363E-03
 5.50000E+00    9.40973E-03
 6.00000E+00    1.51804E-02
 6.50000E+00    2.38588E-02
 7.00000E+00    3.70031E-02
 7.50000E+00    6.20911E-02
 8.00000E+00    1.07524E-01
 8.50000E+00    1.87411E-01
 9.00000E+00    3.21237E-01
 9.50000E+00    5.33543E-01
 1.00000E+01    8.52451E-01
 1.05000E+01    1.30728E+00
 1.10000E+01    1.92549E+00
 1.15000E+01    2.73019E+00
 1.20000E+01    3.73869E+00
 1.25000E+01    4.96239E+00
 1.30000E+01    6.40739E+00
 1.35000E+01    8.07556E+00
 1.40000E+01    9.96587E+00
 1.45000E+01    1.20750E+01
 1.50000E+01    1.43983E+01
 1.55000E+01    1.69323E+01
 1.60000E+01    1.96694E+01
 1.65000E+01    2.25979E+01
 1.70000E+01    2.57142E+01
 1.75000E+01    2.90098E+01
 1.80000E+01    3.24729E+01
 1.85000E+01    3.61027E+01
 1.90000E+01    3.98926E+01
 1.95000E+01    4.38413E+01
 2.00000E+01    4.79444E+01
