# n + Sc 45 : (n,xa)    
# jendl4.0   T.WATANABE                        EVAL-AUG88
# 
# # energies =    54
#   E(MeV)        xs(mb) 
 1.26782E-02    0.00000E+00
 2.00000E-02    0.00000E+00
 3.00000E-02    0.00000E+00
 5.00000E-02    0.00000E+00
 7.00000E-02    0.00000E+00
 1.00000E-01    0.00000E+00
 2.00000E-01    0.00000E+00
 3.00000E-01    0.00000E+00
 3.85050E-01    0.00000E+00
 3.85440E-01    0.00000E+00
 4.50000E-01    7.42299E-02
 5.00000E-01    1.58391E-01
 5.55183E-01    2.51276E-01
 7.00000E-01    4.95034E-01
 7.36130E-01    5.55849E-01
 7.36359E-01    5.56235E-01
 9.60030E-01    9.32722E-01
 9.60273E-01    9.33131E-01
 9.96467E-01    9.94053E-01
 1.00000E+00    1.00000E+00
 1.09090E+00    1.13635E+00
 1.09114E+00    1.13671E+00
 1.25000E+00    1.37500E+00
 1.26470E+00    1.39705E+00
 1.26496E+00    1.39744E+00
 1.33264E+00    1.49896E+00
 1.44051E+00    1.66077E+00
 1.46587E+00    1.69881E+00
 1.50000E+00    1.75000E+00
 1.59132E+00    1.88698E+00
 1.69920E+00    2.04880E+00
 1.69960E+00    2.04940E+00
 1.75000E+00    2.12500E+00
 1.84080E+00    2.26120E+00
 1.94263E+00    2.41395E+00
 2.00000E+00    2.50000E+00
 3.00000E+00    4.00000E+00
 4.00000E+00    5.00000E+00
 5.00000E+00    7.00000E+00
 6.00000E+00    8.00000E+00
 7.00000E+00    1.00000E+01
 8.00000E+00    1.10000E+01
 9.00000E+00    1.40000E+01
 1.00000E+01    1.90000E+01
 1.10000E+01    2.60000E+01
 1.20000E+01    3.60000E+01
 1.30000E+01    4.70000E+01
 1.40000E+01    5.35000E+01
 1.50000E+01    5.10000E+01
 1.60000E+01    4.00000E+01
 1.70000E+01    2.95000E+01
 1.80000E+01    2.65000E+01
 1.90000E+01    2.50000E+01
 2.00000E+01    2.34000E+01
