# n + Cl 35 : (n,n'08)  
# jendl4.0   T.WATANABE                        EVAL-MAR94
# uncertainties: n
# # energies =   113
#   E(MeV)       xs(mb) 
 4.05684E+00    0.00000E+00
 4.05690E+00    3.93670E-03
 4.05845E+00    1.19869E-01
 4.06137E+00    3.37241E-01
 4.06392E+00    5.27441E-01
 4.06840E+00    8.60292E-01
 4.07511E+00    1.35957E+00
 4.08184E+00    1.85884E+00
 4.09351E+00    2.20614E+00
 4.10376E+00    2.51003E+00
 4.11274E+00    2.77593E+00
 4.12851E+00    3.24126E+00
 4.14038E+00    3.59026E+00
 4.15824E+00    4.11376E+00
 4.17618E+00    4.63725E+00
 4.19003E+00    4.95553E+00
 4.21088E+00    5.43296E+00
 4.23184E+00    5.91038E+00
 4.26264E+00    6.52328E+00
 4.29367E+00    7.13618E+00
 4.29830E+00    7.22368E+00
 4.31971E+00    7.61217E+00
 4.35743E+00    8.29203E+00
 4.38594E+00    8.80192E+00
 4.40744E+00    9.18434E+00
 4.43989E+00    9.75797E+00
 4.47258E+00    1.03316E+01
 4.50724E+00    1.08698E+01
 4.53778E+00    1.13408E+01
 4.56467E+00    1.17529E+01
 4.61213E+00    1.24740E+01
 4.64804E+00    1.30149E+01
 4.70243E+00    1.38262E+01
 4.75746E+00    1.46375E+01
 4.79400E+00    1.51870E+01
 4.84934E+00    1.60112E+01
 4.90531E+00    1.68354E+01
 4.94256E+00    1.73639E+01
 4.98010E+00    1.78924E+01
 4.99430E+00    1.80947E+01
 5.00000E+00    1.81901E+01
 5.02239E+00    1.84475E+01
 5.08816E+00    1.92206E+01
 5.15479E+00    1.99938E+01
 5.16467E+00    2.01126E+01
 5.21329E+00    2.06150E+01
 5.30569E+00    2.15570E+01
 5.38788E+00    2.23812E+01
 5.46084E+00    2.31024E+01
 5.52549E+00    2.37334E+01
 5.58269E+00    2.42856E+01
 5.68422E+00    2.52519E+01
 5.76157E+00    2.59766E+01
 5.82027E+00    2.65202E+01
 5.90945E+00    2.73355E+01
 6.00000E+00    2.81508E+01
 6.23574E+00    2.87217E+01
 6.41860E+00    2.91499E+01
 6.55926E+00    2.94711E+01
 6.77605E+00    2.99528E+01
 7.00000E+00    3.04345E+01
 7.11782E+00    3.00597E+01
 7.32880E+00    2.94037E+01
 7.49113E+00    2.89117E+01
 7.61523E+00    2.85427E+01
 7.80524E+00    2.79893E+01
 8.00000E+00    2.74358E+01
 8.11865E+00    2.68800E+01
 8.22392E+00    2.63937E+01
 8.41143E+00    2.55427E+01
 8.55486E+00    2.49045E+01
 8.66404E+00    2.44258E+01
 8.83042E+00    2.37077E+01
 9.00000E+00    2.29897E+01
 9.11932E+00    2.25741E+01
 9.33193E+00    2.18468E+01
 9.49465E+00    2.13013E+01
 9.61854E+00    2.08922E+01
 9.80741E+00    2.02786E+01
 1.00000E+01    1.96649E+01
 1.02411E+01    1.91180E+01
 1.04258E+01    1.87079E+01
 1.05665E+01    1.84003E+01
 1.07811E+01    1.79389E+01
 1.10000E+01    1.74775E+01
 1.12419E+01    1.70599E+01
 1.14268E+01    1.67467E+01
 1.17099E+01    1.62768E+01
 1.20000E+01    1.58070E+01
 1.22425E+01    1.55066E+01
 1.24277E+01    1.52814E+01
 1.27106E+01    1.49435E+01
 1.30000E+01    1.46056E+01
 1.32431E+01    1.43548E+01
 1.36163E+01    1.39787E+01
 1.40000E+01    1.36026E+01
 1.42478E+01    1.33719E+01
 1.45000E+01    1.31412E+01
 1.47479E+01    1.29249E+01
 1.50000E+01    1.27085E+01
 1.52440E+01    1.25113E+01
 1.56174E+01    1.22155E+01
 1.60000E+01    1.19197E+01
 1.62443E+01    1.17446E+01
 1.66179E+01    1.14820E+01
 1.70000E+01    1.12194E+01
 1.74929E+01    1.09136E+01
 1.77446E+01    1.07608E+01
 1.80000E+01    1.06079E+01
 1.84932E+01    1.03438E+01
 1.90000E+01    1.00796E+01
 1.94936E+01    9.84510E+00
 2.00000E+01    9.61060E+00
