# n + Ba135 : (n,tot)   
# jendl.ad   N.Iwamoto                         EVAL-Apr14
# uncertainties: n
# # energies =    69
#   E(MeV)       xs(mb) 
 1.00000E-10    4.04793E+04
 5.00000E-09    1.10222E+04
 1.00000E-08    8.34766E+03
 1.50000E-08    7.01436E+03
 2.00000E-08    6.17118E+03
 2.50000E-08    5.57543E+03
 3.00000E-08    5.12515E+03
 3.50000E-08    4.71243E+03
 4.20000E-08    4.31108E+03
 5.00000E-08    3.97660E+03
 5.80000E-08    3.69587E+03
 6.70000E-08    3.41093E+03
 8.00000E-08    3.08733E+03
 1.00000E-07    2.68649E+03
 1.40000E-07    2.31887E+03
 1.80000E-07    2.07156E+03
 2.20000E-07    1.90800E+03
 2.50000E-07    1.79673E+03
 2.80000E-07    1.71680E+03
 3.00000E-07    1.66064E+03
 3.20000E-07    1.59837E+03
 3.50000E-07    1.51268E+03
 4.00000E-07    1.38514E+03
 5.00000E-07    1.24009E+03
 6.25000E-07    1.11121E+03
 7.80000E-07    1.02992E+03
 8.50000E-07    9.91759E+02
 9.10000E-07    9.64799E+02
 9.50000E-07    9.49591E+02
 9.72000E-07    9.38349E+02
 9.96000E-07    9.27150E+02
 1.02000E-06    9.16735E+02
 1.04500E-06    9.05918E+02
 1.07100E-06    8.95152E+02
 1.09700E-06    8.85047E+02
 1.12300E-06    8.74780E+02
 1.15000E-06    8.44360E+02
 1.30000E-06    7.91703E+02
 1.50000E-06    7.06685E+02
 2.10000E-06    6.20965E+02
 2.60000E-06    5.60780E+02
 3.30000E-06    5.11065E+02
 4.00000E-06    4.30512E+02
 9.87700E-06    4.80311E+02
 1.59680E-05    1.08378E+05
 2.77000E-05    4.89436E+02
 4.80520E-05    5.50679E+02
 7.55014E-05    7.37636E+04
 1.48728E-04    5.70668E+03
 3.67262E-04    6.09994E+03
 9.06898E-04    4.21891E+03
 1.42510E-03    3.61169E+03
 2.23945E-03    3.17208E+03
 3.51910E-03    1.73552E+03
 5.53000E-03    9.46387E+02
 9.11800E-03    7.23654E+02
 1.50300E-02    5.47972E+02
 2.47800E-02    4.12024E+02
 4.08500E-02    3.09837E+02
 6.73400E-02    2.37440E+02
 1.11000E-01    1.91633E+02
 1.83000E-01    1.58585E+02
 3.02000E-01    1.23753E+02
 5.00000E-01    8.04463E+01
 8.21000E-01    4.71910E+01
 1.35300E+00    3.11283E+01
 2.23100E+00    2.08399E+01
 3.67900E+00    9.59334E+00
 6.06500E+00    1.94093E+03
