# n + Ba135 : (n,n')    
# jendl.ad   N.Iwamoto                         EVAL-Apr14
# uncertainties: n
# # energies =    88
#   E(MeV)       xs(mb) 
 1.05000E-01    0.00000E+00
 1.10000E-01    1.62054E-03
 1.20000E-01    1.97300E-03
 1.30000E-01    2.15042E-03
 1.40000E-01    2.23215E-03
 1.50000E-01    2.27177E-03
 1.60000E-01    2.29306E-03
 1.70000E-01    2.32159E-03
 1.80000E-01    2.34064E-03
 1.90000E-01    2.35417E-03
 2.00000E-01    2.36329E-03
 2.22620E-01    1.28365E-02
 2.25000E-01    5.20561E+01
 2.50000E-01    1.34611E+02
 2.70225E-01    1.72175E+02
 2.75000E-01    1.81362E+02
 3.00000E-01    2.21966E+02
 4.00000E-01    3.19792E+02
 4.84125E-01    3.94409E+02
 5.00000E-01    5.56384E+02
 5.92222E-01    7.73620E+02
 6.00000E-01    8.36806E+02
 7.00000E-01    1.08331E+03
 7.19540E-01    1.11472E+03
 8.00000E-01    1.28186E+03
 8.61405E-01    1.36879E+03
 8.81057E-01    1.42178E+03
 9.00000E-01    1.48523E+03
 9.17096E-01    1.51685E+03
 9.58010E-01    1.59172E+03
 9.87292E-01    1.62931E+03
 1.00000E+00    1.66435E+03
 1.01554E+00    1.68851E+03
 1.10000E+00    1.81030E+03
 1.13845E+00    1.84664E+03
 1.17391E+00    1.89089E+03
 1.20000E+00    1.91819E+03
 1.20946E+00    1.92612E+03
 1.22280E+00    1.93713E+03
 1.23503E+00    1.95012E+03
 1.24767E+00    1.96624E+03
 1.30000E+00    2.01458E+03
 1.30825E+00    2.02025E+03
 1.40000E+00    2.07921E+03
 1.50000E+00    2.12184E+03
 1.60000E+00    2.15626E+03
 1.70000E+00    2.18319E+03
 1.80000E+00    2.20618E+03
 1.90000E+00    2.22599E+03
 2.00000E+00    2.24323E+03
 2.25000E+00    2.28869E+03
 2.50000E+00    2.32493E+03
 2.75000E+00    2.36564E+03
 3.00000E+00    2.39853E+03
 3.50000E+00    2.43657E+03
 4.00000E+00    2.43525E+03
 4.50000E+00    2.40618E+03
 5.00000E+00    2.36885E+03
 5.50000E+00    2.33413E+03
 6.00000E+00    2.30789E+03
 6.50000E+00    2.28974E+03
 7.00000E+00    2.27649E+03
 7.50000E+00    2.21316E+03
 8.00000E+00    2.04733E+03
 8.50000E+00    1.79761E+03
 9.00000E+00    1.52525E+03
 9.50000E+00    1.26623E+03
 1.00000E+01    1.02285E+03
 1.05000E+01    8.18298E+02
 1.10000E+01    6.60605E+02
 1.15000E+01    5.45595E+02
 1.20000E+01    4.62942E+02
 1.25000E+01    4.03097E+02
 1.30000E+01    3.59168E+02
 1.35000E+01    3.26389E+02
 1.40000E+01    3.01406E+02
 1.45000E+01    2.81896E+02
 1.50000E+01    2.66136E+02
 1.55000E+01    2.53209E+02
 1.60000E+01    2.41780E+02
 1.65000E+01    2.31622E+02
 1.70000E+01    2.23101E+02
 1.75000E+01    2.14356E+02
 1.80000E+01    2.07175E+02
 1.85000E+01    2.00188E+02
 1.90000E+01    1.93894E+02
 1.95000E+01    1.87652E+02
 2.00000E+01    1.82074E+02
