# n + Pb208 : (n,n')    
# jendl4.0   O.Iwamoto, N.Iwamoto              EVAL-MAR10
# uncertainties: n
# # energies =    74
#   E(MeV)       xs(mb) 
 1.50000E-01    0.00000E+00
 2.00000E-01    1.24053E-06
 4.00000E-01    3.18406E-05
 5.00000E-01    8.19618E-05
 6.00000E-01    1.76681E-04
 8.00000E-01    5.96614E-04
 1.00000E+00    1.56078E-03
 1.20000E+00    3.48283E-03
 1.40000E+00    6.99788E-03
 1.50000E+00    9.62982E-03
 1.60000E+00    1.30389E-02
 1.80000E+00    2.29480E-02
 2.00000E+00    3.86179E-02
 2.50000E+00    1.24955E-01
 2.62723E+00    1.67106E-01
 3.00000E+00    5.58124E+02
 3.21325E+00    7.21610E+02
 3.49196E+00    9.97046E+02
 3.50000E+00    1.01618E+03
 3.72643E+00    1.23176E+03
 3.93881E+00    1.42170E+03
 3.96558E+00    1.44656E+03
 3.98017E+00    1.46543E+03
 4.00000E+00    1.48978E+03
 4.01508E+00    1.50470E+03
 4.05658E+00    1.54873E+03
 4.06462E+00    1.55622E+03
 4.07014E+00    1.56262E+03
 4.10521E+00    1.60893E+03
 4.12591E+00    1.63641E+03
 4.14532E+00    1.66766E+03
 4.16108E+00    1.69250E+03
 4.17917E+00    1.72076E+03
 4.20068E+00    1.75475E+03
 4.22580E+00    1.79346E+03
 4.25001E+00    1.82864E+03
 4.25052E+00    1.83043E+03
 4.27413E+00    1.87110E+03
 4.28307E+00    1.88756E+03
 4.31701E+00    1.93838E+03
 4.33894E+00    1.96846E+03
 4.34417E+00    1.97596E+03
 4.50000E+00    2.14853E+03
 5.00000E+00    2.42744E+03
 5.50000E+00    2.52465E+03
 6.00000E+00    2.55095E+03
 6.50000E+00    2.55200E+03
 7.00000E+00    2.55409E+03
 7.50000E+00    2.56537E+03
 8.00000E+00    2.46586E+03
 8.50000E+00    2.22207E+03
 9.00000E+00    1.91276E+03
 9.50000E+00    1.58775E+03
 1.00000E+01    1.28116E+03
 1.05000E+01    1.03489E+03
 1.10000E+01    8.43946E+02
 1.15000E+01    7.00926E+02
 1.20000E+01    6.00590E+02
 1.25000E+01    5.30834E+02
 1.30000E+01    4.77693E+02
 1.35000E+01    4.38773E+02
 1.40000E+01    4.05286E+02
 1.45000E+01    3.81358E+02
 1.50000E+01    3.57914E+02
 1.55000E+01    3.41890E+02
 1.60000E+01    3.24734E+02
 1.65000E+01    3.11704E+02
 1.70000E+01    2.96262E+02
 1.75000E+01    2.84845E+02
 1.80000E+01    2.73691E+02
 1.85000E+01    2.65000E+02
 1.90000E+01    2.54495E+02
 1.95000E+01    2.46461E+02
 2.00000E+01    2.37741E+02
