# n + Os190 : (n,n'09)  
# jendl4.0   N.Iwamoto                         EVAL-Jan10
# uncertainties: n
# # energies =    79
#   E(MeV)       xs(mb) 
 1.12142E+00    0.00000E+00
 1.16937E+00    1.37419E+02
 1.20000E+00    1.55144E+02
 1.21025E+00    1.59957E+02
 1.30000E+00    1.89302E+02
 1.33395E+00    1.97639E+02
 1.38974E+00    2.03971E+02
 1.39436E+00    2.03530E+02
 1.40000E+00    2.03082E+02
 1.44344E+00    2.04862E+02
 1.45380E+00    2.04200E+02
 1.48203E+00    2.04438E+02
 1.48987E+00    2.04528E+02
 1.50000E+00    1.97387E+02
 1.52214E+00    1.94541E+02
 1.55350E+00    1.90745E+02
 1.55542E+00    1.89988E+02
 1.57737E+00    1.84921E+02
 1.57864E+00    1.84591E+02
 1.59229E+00    1.81538E+02
 1.60000E+00    1.80044E+02
 1.62455E+00    1.76732E+02
 1.67532E+00    1.69630E+02
 1.68458E+00    1.68591E+02
 1.68842E+00    1.67744E+02
 1.68952E+00    1.67479E+02
 1.69062E+00    1.66882E+02
 1.69803E+00    1.65173E+02
 1.70000E+00    1.64531E+02
 1.71446E+00    1.61832E+02
 1.71737E+00    1.61365E+02
 1.73396E+00    1.58231E+02
 1.74210E+00    1.54306E+02
 1.78644E+00    1.43483E+02
 1.80000E+00    1.40369E+02
 1.81227E+00    1.38100E+02
 1.82313E+00    1.35814E+02
 1.83328E+00    1.33657E+02
 1.84607E+00    1.31078E+02
 1.90000E+00    1.22884E+02
 2.00000E+00    1.09470E+02
 2.25000E+00    7.81661E+01
 2.50000E+00    5.73798E+01
 2.75000E+00    4.10949E+01
 3.00000E+00    2.72702E+01
 3.50000E+00    1.21423E+01
 4.00000E+00    5.23132E+00
 4.50000E+00    2.28043E+00
 5.00000E+00    1.05708E+00
 5.50000E+00    5.51695E-01
 6.00000E+00    3.39292E-01
 6.50000E+00    2.45205E-01
 7.00000E+00    1.99657E-01
 7.50000E+00    1.74602E-01
 8.00000E+00    1.58800E-01
 8.50000E+00    1.47536E-01
 9.00000E+00    1.38720E-01
 9.50000E+00    1.31241E-01
 1.00000E+01    1.24476E-01
 1.05000E+01    1.18074E-01
 1.10000E+01    1.11902E-01
 1.15000E+01    1.05942E-01
 1.20000E+01    1.00264E-01
 1.25000E+01    9.49078E-02
 1.30000E+01    8.99123E-02
 1.35000E+01    8.52964E-02
 1.40000E+01    8.10496E-02
 1.45000E+01    7.71513E-02
 1.50000E+01    7.35685E-02
 1.55000E+01    7.02634E-02
 1.60000E+01    6.71961E-02
 1.65000E+01    6.43245E-02
 1.70000E+01    6.16222E-02
 1.75000E+01    5.90654E-02
 1.80000E+01    5.66394E-02
 1.85000E+01    5.43351E-02
 1.90000E+01    5.21492E-02
 1.95000E+01    5.00802E-02
 2.00000E+01    4.81296E-02
